wavelength,flux
4989.4781,5731.182
4990.1201,5731.226
4990.7622,5731.269
4991.4042,5734.053
4992.0462,5705.617
4992.6882,5601.12
4993.3302,5936.683
4993.9723,6032.549
4994.6143,6053.49
4995.2563,5909.187
4995.8983,5865.816
4996.5404,5935.92
4997.1824,6090.103
4997.8244,6197.294
4998.4664,6113.428
4999.1085,5953.275
4999.7505,5785.517
5000.3925,5549.059
5001.0345,5527.554
5001.6765,5300.827
5002.3186,5114.963
5002.9606,5299.941
5003.6026,5159.747
5004.2446,5207.586
5004.8867,5375.615
5005.5287,5376.524
5006.1707,5374.92
5006.8127,5308.339
5007.4548,5000.391
5008.0968,5096.172
5008.7388,5308.731
5009.3808,5547.237
5010.0229,5667.61
5010.6649,5758.359
5011.3069,5711.528
5011.9489,5670.079
5012.5909,5607.734
5013.233,5394.86
5013.875,5168.517
5014.517,4983.853
5015.159,4942.528
5015.8011,4933.918
5016.4431,4968.71
5017.0851,5060.793
5017.7271,5423.387
5018.3692,5280.536
5019.0112,5640.157
5019.6532,5618.973
5020.2952,5651.218
5020.9373,5683.566
5021.5793,5679.857
5022.2213,5600.723
5022.8633,5533.275
5023.5053,5379.058
5024.1474,5309.669
5024.7894,5451.257
5025.4314,5818.205
5026.0734,5898.75
5026.7155,5837.881
5027.3575,5861.469
5027.9995,5742.185
5028.6415,5683.658
5029.2836,5589.494
5029.9256,5634.723
5030.5676,5991.757
5031.2096,6127.367
5031.8516,6132.889
5032.4937,6560.558
5033.1357,6576.704
5033.7777,6356.655
5034.4197,6257.507
5035.0618,6294.28
5035.7038,6254.879
5036.3458,5901.129
5036.9878,5725.155
5037.6299,5431.42
5038.2719,5432.429
5038.9139,5458.112
5039.5559,5396.896
5040.198,5308.98
5040.84,5141.935
5041.482,4932.997
5042.124,4845.773
5042.766,4919.195
5043.4081,5129.584
5044.0501,5759.391
5044.6921,5994.933
5045.3341,6166.771
5045.9762,6312.042
5046.6182,6483.827
5047.2602,6668.025
5047.9022,6523.071
5048.5443,6262.783
5049.1863,6016.211
5049.8283,5829.513
5050.4703,5670.831
5051.1123,5581.931
5051.7544,5637.373
5052.3964,5882.06
5053.0384,5959.282
5053.6804,6040.892
5054.3225,6126.859
5054.9645,6248.696
5055.6065,6397.558
5056.2485,6497.655
5056.8906,6519.676
5057.5326,6431.649
5058.1746,6646.272
5058.8166,6666.206
5059.4587,6645.225
5060.1007,6821.374
5060.7427,6686.843
5061.3847,6570.906
5062.0267,6748.422
5062.6688,6689.575
5063.3108,6396.996
5063.9528,6466.582
5064.5948,6294.168
5065.2369,5934.229
5065.8789,5684.304
5066.5209,5566.166
5067.1629,5714.625
5067.805,5973.087
5068.447,6092.728
5069.089,5980.833
5069.731,5799.722
5070.3731,5783.345
5071.0151,6024.143
5071.6571,6239.952
5072.2991,6202.511
5072.9411,6083.831
5073.5832,5908.815
5074.2252,6044.014
5074.8672,6079.762
5075.5092,6168.572
5076.1513,6243.909
5076.7933,6305.634
5077.4353,5971.543
5078.0773,6090.543
5078.7194,6009.208
5079.3614,5989.729
5080.0034,5807.179
5080.6454,5445.021
5081.2874,5246.055
5081.9295,5381.152
5082.5715,5678.116
5083.2135,5706.173
5083.8555,5741.406
5084.4976,5800.903
5085.1396,5920.213
5085.7816,6223.087
5086.4236,6403.408
5087.0657,6614.208
5087.7077,6770.338
5088.3497,6598.313
5088.9917,6573.859
5089.6338,6435.024
5090.2758,6594.954
5090.9178,6597.089
5091.5598,6499.694
5092.2018,6545.14
5092.8439,6630.515
5093.4859,6852.813
5094.1279,6745.404
5094.7699,6980.621
5095.412,6854.189
5096.054,6671.884
5096.696,6340.298
5097.338,6180.234
5097.9801,6001.135
5098.6221,5977.028
5099.2641,6142.85
5099.9061,6142.803
5100.5481,5985.21
5101.1902,5936.678
5101.8322,6316.725
5102.4742,6418.086
5103.1162,6301.555
5103.7583,6349.02
5104.4003,6416.563
5105.0423,6204.396
5105.6843,6332.136
5106.3264,5979.86
5106.9684,6286.262
5107.6104,6077.078
5108.2524,5995.958
5108.8945,6038.972
5109.5365,5996.221
5110.1785,6053.937
5110.8205,6134.302
5111.4625,6260.138
5112.1046,6351.148
5112.7466,6497.527
5113.3886,6635.375
5114.0306,6699.812
5114.6727,6731.606
5115.3147,6832.833
5115.9567,6970.583
5116.5987,7016.003
5117.2408,7073.326
5117.8828,6974.47
5118.5248,6962.007
5119.1668,7020.552
5119.8088,6915.715
5120.4509,6779.05
5121.0929,6673.696
5121.7349,6660.299
5122.3769,6285.498
5123.019,6237.388
5123.661,6284.993
5124.303,6025.18
5124.945,6108.772
5125.5871,5872.361
5126.2291,5936.72
5126.8711,5870.11
5127.5131,5978.816
5128.1552,6115.939
5128.7972,6095.354
5129.4392,6100.338
5130.0812,6229.444
5130.7232,6359.861
5131.3653,6317.259
5132.0073,6307.69
5132.6493,6574.862
5133.2913,6784.474
5133.9334,6859.359
5134.5754,6773.796
5135.2174,6758.551
5135.8594,6480.59
5136.5015,6787.031
5137.1435,6859.351
5137.7855,6495.18
5138.4275,6443.93
5139.0696,6326.331
5139.7116,6181.159
5140.3536,5995.4
5140.9956,6092.273
5141.6376,6268.373
5142.2797,6508.379
5142.9217,6616.159
5143.5637,6436.268
5144.2057,6256.429
5144.8478,6330.238
5145.4898,6478.338
5146.1318,6446.083
5146.7738,6274.868
5147.4159,6281.486
5148.0579,6334.243
5148.6999,6286.72
5149.3419,6313.185
5149.9839,6386.195
5150.626,6669.661
5151.268,6374.536
5151.91,6083.185
5152.552,6156.097
5153.1941,6118.966
5153.8361,6321.924
5154.4781,6137.064
5155.1201,6098.063
5155.7622,6269.827
5156.4042,6633.538
5157.0462,6942.978
5157.6882,7111.057
5158.3303,7263.809
5158.9723,7375.472
5159.6143,7456.811
5160.2563,7599.564
5160.8983,7531.382
5161.5404,7286.812
5162.1824,7264.46
5162.8244,7152.655
5163.4664,6761.439
5164.1085,6388.844
5164.7505,6277.239
5165.3925,6155.182
5166.0345,5916.715
5166.6766,5371.98
5167.3186,5027.13
5167.9606,4843.813
5168.6026,4442.061
5169.2446,4495.517
5169.8867,4710.465
5170.5287,4894.469
5171.1707,4991.795
5171.8127,4941.817
5172.4548,4660.338
5173.0968,4391.016
5173.7388,4373.215
5174.3808,4566.779
5175.0229,4985.696
5175.6649,5594.667
5176.3069,6109.421
5176.9489,6287.046
5177.591,6383.723
5178.233,6385.288
5178.875,6269.79
5179.517,6372.855
5180.159,6044.102
5180.8011,5679.15
5181.4431,5361.559
5182.0851,5084.437
5182.7271,4633.2
5183.3692,4329.758
5184.0112,4272.697
5184.6532,4422.499
5185.2952,4684.861
5185.9373,5180.889
5186.5793,5874.347
5187.2213,6386.116
5187.8633,6749.271
5188.5054,7120.349
5189.1474,7206.372
5189.7894,7080.143
5190.4314,6994.506
5191.0734,7073.523
5191.7155,7109.508
5192.3575,6841.985
5192.9995,6488.848
5193.6415,6227.655
5194.2836,6491.755
5194.9256,6730.508
5195.5676,7108.793
5196.2096,7250.38
5196.8517,7262.759
5197.4937,7407.208
5198.1357,7922.591
5198.7777,8061.826
5199.4197,7950.134
5200.0618,7853.95
5200.7038,7851.616
5201.3458,7672.782
5201.9878,7816.079
5202.6299,7490.792
5203.2719,7082.631
5203.9139,6885.766
5204.5559,6697.368
5205.198,6247.081
5205.84,5785.555
5206.482,5570.278
5207.124,5473.219
5207.7661,5383.604
5208.4081,5464.972
5209.0501,5722.689
5209.6921,5872.167
5210.3341,5906.062
5210.9762,6720.782
5211.6182,7212.817
5212.2602,7588.815
5212.9022,7980.604
5213.5443,8341.207
5214.1863,8531.953
5214.8283,8466.264
5215.4703,8259.246
5216.1124,8291.754
5216.7544,8031.634
5217.3964,7841.613
5218.0384,8119.795
5218.6804,8446.824
5219.3225,8532.031
5219.9645,8777.662
5220.6065,8993.571
5221.2485,9024.329
5221.8906,9005.8
5222.5326,9047.183
5223.1746,8880.426
5223.8166,8482.6
5224.4587,8255.406
5225.1007,7860.599
5225.7427,7493.996
5226.3847,7116.831
5227.0268,7175.793
5227.6688,6894.736
5228.3108,7009.505
5228.9528,7435.745
5229.5948,7983.728
5230.2369,8556.929
5230.8789,8412.849
5231.5209,8550.026
5232.1629,8602.605
5232.805,8606.02
5233.447,8362.854
5234.089,8204.01
5234.731,8209.528
5235.3731,8609.026
5236.0151,8935.27
5236.6571,9119.317
5237.2991,9196.867
5237.9411,9468.846
5238.5832,9838.461
5239.2252,9853.299
5239.8672,9666.656
5240.5092,9555.383
5241.1513,9514.211
5241.7933,9586.48
5242.4353,9870.467
5243.0773,9608.258
5243.7194,9378.914
5244.3614,9236.431
5245.0034,9573.07
5245.6454,9756.151
5246.2875,9583.004
5246.9295,9266.432
5247.5715,9044.076
5248.2135,8859.165
5248.8555,8543.285
5249.4976,8590.189
5250.1396,8769.518
5250.7816,8736.439
5251.4236,8652.5
5252.0657,8584.532
5252.7077,8646.122
5253.3497,8920.07
5253.9917,9270.234
5254.6338,9350.719
5255.2758,9210.358
5255.9178,9234.605
5256.5598,9458.832
5257.2019,9576.156
5257.8439,9920.893
5258.4859,10206.61
5259.1279,9985.351
5259.7699,9897.775
5260.412,9761.053
5261.054,9557.287
5261.696,9085.181
5262.338,8351.916
5262.9801,8060.401
5263.6221,7570.438
5264.2641,7140.423
5264.9061,6979.062
5265.5482,6865.096
5266.1902,6705.347
5266.8322,7019.013
5267.4742,5025.463
5268.1162,6009.34
5268.7583,7202.495
5269.4003,7121.005
5270.0423,6872.611
5270.6843,6518.59
5271.3264,6596.118
5271.9684,7104.08
5272.6104,7687.649
5273.2524,8251.248
5273.8945,8605.964
5274.5365,8701.959
5275.1785,8916.963
5275.8205,9093.6
5276.4626,9217.324
5277.1046,9330.486
5277.7466,9457.942
5278.3886,9730.51
5279.0306,10118.05
5279.6727,10422.22
5280.3147,9957.537
5280.9567,9611.892
5281.5987,9325.128
5282.2408,9138.77
5282.8828,8916.059
5283.5248,8843.434
5284.1668,8980.281
5284.8089,9108.113
5285.4509,9367.192
5286.0929,9842.939
5286.7349,10291.81
5287.3769,10587.83
5288.019,10731.06
5288.661,10714.31
5289.303,10633.97
5289.945,10597.66
5290.5871,10649.06
5291.2291,10612.17
5291.8711,10821.81
5292.5131,10693.62
5293.1552,10595.96
5293.7972,10408.58
5294.4392,10105.39
5295.0812,9969.359
5295.7233,9812.561
5296.3653,9767.072
5297.0073,9332.105
5297.6493,8888.081
5298.2913,8459.281
5298.9334,8319.223
5299.5754,8346.488
5300.2174,8888.266
5300.8594,9507.025
5301.5015,9736.398
5302.1435,9797.748
5302.7855,9900.309
5303.4275,10010.69
5304.0696,10244.11
5304.7116,10560.04
5305.3536,10807.69
5305.9956,10957.26
5306.6376,10979.65
5307.2797,10935.55
5307.9217,11047.45
5308.5637,10951.04
5309.2057,10825.25
5309.8478,10783.48
5310.4898,11173.43
5311.1318,11010.46
5311.7738,11217.32
5312.4159,11367.23
5313.0579,11214.88
5313.6999,11116.22
5314.3419,11181.77
5314.984,10918.87
5315.626,11023.96
5316.268,10903.37
5316.91,10733.27
5317.552,10799.33
5318.1941,10802.75
5318.8361,10731.98
5319.4781,10816.82
5320.1201,10829.24
5320.7622,10773.14
5321.4042,10519.66
5322.0462,10206.1
5322.6882,10075.9
5323.3303,9973.467
5323.9723,9859.026
5324.6143,9428.47
5325.2563,8934.181
5325.8984,8743.0
5326.5404,8904.834
5327.1824,9001.689
5327.8244,8810.756
5328.4664,8198.561
5329.1085,7543.772
5329.7505,7628.379
5330.3925,8156.696
5331.0345,9094.844
5331.6766,10029.02
5332.3186,10335.6
5332.9606,10600.31
5333.6026,10718.13
5334.2447,10513.88
5334.8867,10647.95
5335.5287,10663.26
5336.1707,11027.21
5336.8127,11158.84
5337.4548,10851.53
5338.0968,10532.06
5338.7388,10314.13
5339.3808,10246.99
5340.0229,10113.0
5340.6649,9674.264
5341.3069,9417.391
5341.9489,9519.49
5342.591,9667.016
5343.233,10105.79
5343.875,10536.14
5344.517,10548.15
5345.1591,10665.11
5345.8011,10627.12
5346.4431,10462.87
5347.0851,10091.83
5347.7271,10195.94
5348.3692,10423.16
5349.0112,10423.58
5349.6532,10120.71
5350.2952,10156.17
5350.9373,10347.34
5351.5793,10774.92
5352.2213,11148.53
5352.8633,11257.97
5353.5054,11464.67
5354.1474,11528.39
5354.7894,11343.51
5355.4314,11636.59
5356.0734,12050.75
5356.7155,12031.49
5357.3575,11959.49
5357.9995,12174.85
5358.6415,12302.08
5359.2836,12127.79
5359.9256,12181.38
5360.5676,11967.92
5361.2096,11808.35
5361.8517,11522.34
5362.4937,11349.61
5363.1357,11143.9
5363.7777,11329.94
5364.4198,11024.12
5365.0618,11002.48
5365.7038,10852.39
5366.3458,10602.03
5366.9878,10664.48
5367.6299,10683.37
5368.2719,10574.21
5368.9139,10254.37
5369.5559,10148.5
5370.198,9896.514
5370.84,9367.753
5371.482,9176.424
5372.124,9117.939
5372.7661,9299.529
5373.4081,9914.053
5374.0501,10724.65
5374.6921,11286.92
5375.3342,11340.88
5375.9762,11400.63
5376.6182,11829.65
5377.2602,12048.67
5377.9022,11892.81
5378.5443,11645.04
5379.1863,11669.51
5379.8283,11690.14
5380.4703,11829.95
5381.1124,11872.61
5381.7544,11767.04
5382.3964,11503.64
5383.0384,11515.08
5383.6805,11555.22
5384.3225,11027.0
5384.9645,10923.65
5385.6065,11421.88
5386.2485,11464.51
5386.8906,11736.52
5387.5326,11753.14
5388.1746,11667.24
5388.8166,11392.31
5389.4587,11403.81
5390.1007,11318.82
5390.7427,10975.42
5391.3847,10727.5
5392.0268,10663.2
5392.6688,10599.72
5393.3108,10579.12
5393.9528,10501.2
5394.5949,10273.13
5395.2369,10170.23
5395.8789,10146.28
5396.5209,10357.87
5397.1629,10234.71
5397.805,9984.058
5398.447,9596.979
5399.089,9928.123
5399.731,10733.72
5400.3731,10990.73
5401.0151,11164.97
5401.6571,10998.62
5402.2991,10827.66
5402.9412,10750.49
5403.5832,10671.89
5404.2252,10667.15
5404.8672,9955.979
5405.5092,9627.469
5406.1513,9343.864
5406.7933,9261.533
5407.4353,9218.198
5408.0773,9668.498
5408.7194,10294.08
5409.3614,10439.81
5410.0034,10460.18
5410.6454,10438.75
5411.2875,10284.54
5411.9295,10323.02
5412.5715,10609.95
5413.2135,11070.79
5413.8556,11549.93
5414.4976,11730.61
5415.1396,11763.16
5415.7816,12006.33
5416.4236,12215.91
5417.0657,12239.83
5417.7077,12503.29
5418.3497,12690.23
5418.9917,12516.69
5419.6338,12377.14
5420.2758,12269.17
5420.9178,12029.82
5421.5598,11486.31
5422.2019,11559.7
5422.8439,11810.48
5423.4859,11940.99
5424.1279,11723.79
5424.7699,11448.73
5425.412,11619.02
5426.054,11432.01
5426.696,11682.6
5427.338,11832.83
5427.9801,11879.14
5428.6221,11836.98
5429.2641,11426.5
5429.9061,10920.9
5430.5482,10509.78
5431.1902,10270.9
5431.8322,10463.53
5432.4742,10931.89
5433.1163,11061.33
5433.7583,10673.42
5434.4003,10449.21
5435.0423,10563.74
5435.6843,10651.43
5436.3264,10728.79
5436.9684,11137.87
5437.6104,11587.79
5438.2524,11949.43
5438.8945,12464.61
5439.5365,12422.84
5440.1785,12768.49
5440.8205,12769.21
5441.4626,12664.22
5442.1046,12900.84
5442.7466,12714.47
5443.3886,12565.97
5444.0307,12193.8
5444.6727,12005.17
5445.3147,11614.47
5445.9567,11348.31
5446.5987,10784.9
5447.2408,10369.13
5447.8828,10245.64
5448.5248,10539.48
5449.1668,11067.05
5449.8089,11582.67
5450.4509,12038.05
5451.0929,12375.98
5451.7349,12367.72
5452.377,12053.69
5453.019,11877.75
5453.661,11621.81
5454.303,11385.54
5454.945,11281.64
5455.5871,10977.53
5456.2291,10601.76
5456.8711,10651.67
5457.5131,10803.34
5458.1552,11572.04
5458.7972,12346.11
5459.4392,12287.58
5460.0812,12211.57
5460.7233,11974.33
5461.3653,11833.23
5462.0073,11547.91
5462.6493,11355.6
5463.2914,11570.07
5463.9334,11160.66
5464.5754,11284.28
5465.2174,11463.48
5465.8594,11974.5
5466.5015,12150.23
5467.1435,12162.75
5467.7855,12110.6
5468.4275,12053.33
5469.0696,12299.08
5469.7116,12483.83
5470.3536,12238.99
5470.9956,11918.36
5471.6377,11731.01
5472.2797,11617.91
5472.9217,11674.04
5473.5637,11803.37
5474.2057,11750.72
5474.8478,11394.79
5475.4898,11106.22
5476.1318,11123.24
5476.7738,11223.75
5477.4159,11113.09
5478.0579,10599.99
5478.6999,10831.05
5479.3419,11575.73
5479.984,11743.69
5480.626,12048.15
5481.268,12088.32
5481.91,11801.83
5482.5521,11437.55
5483.1941,11475.4
5483.8361,11841.52
5484.4781,12136.57
5485.1201,12242.71
5485.7622,12568.09
5486.4042,12544.35
5487.0462,12348.46
5487.6882,12227.16
5488.3303,12124.41
5488.9723,12002.77
5489.6143,12028.31
5490.2563,12371.79
5490.8984,12637.05
5491.5404,12611.08
5492.1824,12627.38
5492.8244,12740.04
5493.4665,12750.55
5494.1085,12757.42
5494.7505,12575.98
5495.3925,12430.29
5496.0345,12509.5
5496.6766,12285.92
5497.3186,12416.78
5497.9606,12094.19
5498.6026,11775.6
5499.2447,12002.44
5499.8867,12143.22
5500.5287,12645.39
5501.1707,12665.82
5501.8128,12315.29
5502.4548,12119.87
5503.0968,11668.43
5503.7388,11776.42
5504.3808,11895.61
5505.0229,11929.2
5505.6649,11943.41
5506.3069,12091.33
5506.9489,11998.41
5507.591,11798.31
5508.233,11765.95
5508.875,11949.59
5509.517,12405.74
5510.1591,12605.95
5510.8011,12427.05
5511.4431,12129.53
5512.0851,11840.12
5512.7272,11622.22
5513.3692,11401.2
5514.0112,11183.99
5514.6532,11291.55
5515.2952,11535.75
5515.9373,11687.39
5516.5793,12201.15
5517.2213,12538.51
5517.8633,12372.11
5518.5054,12576.52
5519.1474,13083.37
5519.7894,13234.84
5520.4314,13091.09
5521.0735,13158.53
5521.7155,13172.69
5522.3575,13014.96
5522.9995,13173.38
5523.6415,13255.33
5524.2836,12844.24
5524.9256,12867.17
5525.5676,12603.14
5526.2096,12482.66
5526.8517,12340.01
5527.4937,12259.14
5528.1357,12096.87
5528.7777,11710.57
5529.4198,11445.35
5530.0618,11601.67
5530.7038,12117.97
5531.3458,12740.18
5531.9879,13044.05
5532.6299,12985.94
5533.2719,12879.48
5533.9139,12870.29
5534.5559,12954.28
5535.198,12895.2
5535.84,12838.53
5536.482,12838.31
5537.124,12637.93
5537.7661,12616.86
5538.4081,12600.24
5539.0501,12919.07
5539.6921,12824.76
5540.3342,12839.03
5540.9762,13079.71
5541.6182,13124.43
5542.2602,13331.4
5542.9022,13425.15
5543.5443,13159.78
5544.1863,12657.99
5544.8283,12594.9
5545.4703,12527.72
5546.1124,13069.84
5546.7544,13353.05
5547.3964,13320.21
5548.0384,13231.51
5548.6805,13211.84
5549.3225,13444.93
5549.9645,13603.06
5550.6065,13644.93
5551.2486,13608.22
5551.8906,13341.67
5552.5326,13284.75
5553.1746,13357.05
5553.8166,13454.84
5554.4587,13280.16
5555.1007,12961.65
5555.7427,12809.55
5556.3847,12894.55
5557.0268,12936.95
5557.6688,13049.69
5558.3108,13246.25
5558.9528,13155.64
5559.5949,13109.87
5560.2369,13075.44
5560.8789,13214.68
5561.5209,13070.97
5562.163,12878.13
5562.805,12827.38
5563.447,12765.32
5564.089,12478.27
5564.731,12523.7
5565.3731,12697.13
5566.0151,12278.1
5566.6571,12295.88
5567.2991,12153.9
5567.9412,12251.07
5568.5832,12243.74
5569.2252,12296.31
5569.8672,12582.08
5570.5093,12072.26
5571.1513,12084.98
5571.7933,12226.51
5572.4353,12451.27
5573.0773,12362.53
5573.7194,12208.52
5574.3614,12010.27
5575.0034,12596.19
5575.6454,13134.84
5576.2875,13273.29
5576.9295,13116.79
5577.5715,12908.74
5578.2135,13190.23
5578.8556,13360.61
5579.4976,13365.29
5580.1396,13366.03
5580.7816,13224.85
5581.4237,13197.9
5582.0657,13057.04
5582.7077,12777.09
5583.3497,12724.85
5583.9917,12625.22
5584.6338,12427.92
5585.2758,12358.37
5585.9178,12069.82
5586.5598,11587.31
5587.2019,11245.87
5587.8439,10743.57
5588.4859,10608.81
5589.1279,10656.23
5589.77,10612.47
5590.412,11185.86
5591.054,11486.18
5591.696,12011.69
5592.338,11978.01
5592.9801,12454.59
5593.6221,12478.21
5594.2641,12352.3
5594.9061,12239.86
5595.5482,12050.34
5596.1902,12186.27
5596.8322,12615.59
5597.4742,12777.63
5598.1163,12685.75
5598.7583,12329.82
5599.4003,12084.83
5600.0423,11659.37
5600.6844,11580.1
5601.3264,11958.26
5601.9684,11998.02
5602.6104,11841.85
5603.2524,11990.64
5603.8945,12275.46
5604.5365,12450.88
5605.1785,12878.86
5605.8205,13418.19
5606.4626,13563.92
5607.1046,13670.38
5607.7466,13758.46
5608.3886,13762.58
5609.0307,13723.5
5609.6727,13710.93
5610.3147,13650.37
5610.9567,13630.22
5611.5988,13706.07
5612.2408,13716.32
5612.8828,13185.22
5613.5248,13019.06
5614.1668,12975.67
5614.8089,12912.54
5615.4509,12089.23
5616.0929,11673.73
5616.7349,11456.36
5617.377,11373.06
5618.019,12122.15
5618.661,12601.88
5619.303,12800.79
5619.9451,12859.66
5620.5871,13050.74
5621.2291,12799.16
5621.8711,12840.21
5622.5131,12971.16
5623.1552,12907.12
5623.7972,13120.48
5624.4392,12976.75
5625.0812,12513.64
5625.7233,12349.02
5626.3653,12186.18
5627.0073,12515.8
5627.6493,12976.36
5628.2914,13291.74
5628.9334,13381.1
5629.5754,13267.62
5630.2174,13547.84
5630.8595,13794.47
5631.5015,13838.34
5632.1435,13869.71
5632.7855,13619.05
5633.4275,13722.91
5634.0696,13832.42
5634.7116,13533.78
5675.1591,14027.93
5675.8011,13748.0
5676.4431,13548.14
5677.0851,13657.51
5677.7272,13566.94
5678.3692,13641.63
5679.0112,13719.4
5679.6532,13472.85
5680.2953,13284.03
5680.9373,13286.35
5681.5793,13276.26
5682.2213,13034.92
5682.8633,13028.75
5683.5054,12872.45
5684.1474,12703.59
5684.7894,12876.28
5685.4314,13008.0
5686.0735,12986.94
5686.7155,13043.46
5687.3575,12957.18
5687.9995,12807.36
5688.6416,12874.9
5689.2836,12706.28
5689.9256,12729.78
5690.5676,13182.47
5691.2096,13405.76
5691.8517,13660.23
5692.4937,13562.12
5693.1357,13643.01
5693.7777,14046.88
5694.4198,13799.78
5695.0618,13469.14
5695.7038,13571.99
5696.3458,13412.03
5696.9879,13332.25
5697.6299,13453.82
5698.2719,13641.97
5698.9139,12969.33
5699.556,13157.38
5700.198,12910.41
5700.84,13010.95
5701.482,12729.59
5702.124,12904.68
5702.7661,12687.83
5703.4081,12733.03
5704.0501,12922.12
5704.6921,12927.45
5705.3342,13031.47
5705.9762,13121.98
5706.6182,12745.25
5707.2602,12479.37
5707.9023,12142.64
5708.5443,12087.72
5709.1863,12091.75
5709.8283,11979.17
5710.4703,11921.71
5711.1124,11893.16
5711.7544,12211.47
5712.3964,12484.44
5713.0384,12406.63
5713.6805,12618.86
5714.3225,13083.69
5714.9645,13390.15
5715.6065,13375.31
5716.2486,13393.75
5716.8906,13503.5
5717.5326,13524.17
5718.1746,13726.61
5718.8167,13787.76
5719.4587,13655.26
5720.1007,13594.05
5720.7427,14001.61
5721.3847,13905.09
5722.0268,13822.17
5722.6688,14119.53
5723.3108,14011.12
5723.9528,14125.89
5724.5949,13433.44
5725.2369,11648.23
5725.8789,12564.8
5726.5209,13650.83
5727.163,13740.93
5727.805,13307.77
5728.447,13233.08
5729.089,13336.9
5729.731,13752.58
5730.3731,13689.16
5731.0151,13540.67
5731.6571,13633.4
5732.2991,13577.32
5732.9412,13578.62
5733.5832,13457.05
5734.2252,13501.64
5734.8672,13886.19
5735.5093,14135.13
5736.1513,14025.53
5736.7933,13903.88
5737.4353,14020.53
5738.0774,13906.93
5738.7194,13690.95
5739.3614,13805.79
5740.0034,13675.56
5740.6454,13803.2
5741.2875,13976.74
5741.9295,13945.37
5742.5715,13738.43
5743.2135,13698.37
5743.8556,13779.33
5744.4976,13777.62
5745.1396,13918.08
5745.7816,13993.08
5746.4237,13887.73
5747.0657,13936.81
5747.7077,13931.05
5748.3497,13687.71
5748.9918,13662.28
5749.6338,13583.3
5750.2758,13466.84
5750.9178,13790.98
5751.5598,13900.73
5752.2019,13754.01
5752.8439,13578.0
5753.4859,13201.51
5754.1279,12988.81
5754.77,12927.76
5755.412,13187.35
5756.054,13790.68
5756.696,13782.23
5757.3381,13862.05
5757.9801,14027.29
5758.6221,14101.25
5759.2641,13851.19
5759.9061,13764.41
5760.5482,13631.02
5761.1902,13575.17
5761.8322,13512.06
5762.4742,13375.97
5763.1163,13106.7
5763.7583,13118.95
5764.4003,13403.22
5765.0423,13509.11
5765.6844,13908.12
5766.3264,14097.22
5766.9684,14157.23
5767.6104,13860.93
5768.2525,14067.09
5768.8945,13992.02
5769.5365,14121.76
5770.1785,14357.88
5770.8205,14257.28
5771.4626,13974.12
5772.1046,13735.12
5772.7466,13714.78
5773.3886,13761.27
5774.0307,13722.18
5774.6727,13836.58
5775.3147,13754.97
5775.9567,13561.25
5776.5988,13664.13
5777.2408,13682.84
5777.8828,13639.73
5778.5248,13655.44
5779.1668,13548.62
5779.8089,13323.1
5780.4509,13058.38
5781.0929,13086.1
5781.7349,12791.79
5782.377,12424.28
5783.019,12462.56
5783.661,12453.45
5784.303,12313.08
5784.9451,12504.69
5785.5871,12575.02
5786.2291,12453.9
5786.8711,12747.7
5787.5132,13040.03
5788.1552,13031.9
5788.7972,13187.57
5789.4392,13609.69
5790.0812,13817.71
5790.7233,13529.94
5791.3653,13462.9
5792.0073,13289.4
5792.6493,13471.11
5793.2914,13456.79
5793.9334,13752.62
5794.5754,14109.2
5795.2174,13701.43
5795.8595,13872.99
5796.5015,14250.41
5797.1435,14227.52
5797.7855,13998.28
5798.4276,14024.45
5799.0696,13990.29
5799.7116,13937.95
5800.3536,14118.93
5800.9956,14160.77
5801.6377,14440.97
5802.2797,14406.31
5802.9217,14311.71
5803.5637,14286.06
5804.2058,13845.09
5804.8478,13924.05
5805.4898,13852.09
5806.1318,13952.56
5806.7739,13663.01
5807.4159,13868.8
5808.0579,14166.8
5808.6999,13991.85
5809.3419,14035.28
5809.984,14147.52
5810.626,13953.04
5811.268,14184.81
5811.91,14103.87
5812.5521,14076.81
5813.1941,14122.22
5813.8361,14386.39
5814.4781,14100.86
5815.1202,14114.51
5815.7622,13784.22
5816.4042,13567.86
5817.0462,13656.41
5817.6883,13688.67
5818.3303,13739.67
5818.9723,13929.09
5819.6143,14020.41
5820.2563,14272.61
5820.8984,14504.55
5821.5404,14563.48
5822.1824,14332.03
5822.8244,14339.47
5823.4665,14124.41
5824.1085,13976.5
5824.7505,14116.0
5825.3925,14241.54
5826.0346,14362.03
5826.6766,14152.27
5827.3186,14037.89
5827.9606,14299.28
5828.6026,14301.63
5829.2447,14132.5
5829.8867,14193.38
5830.5287,14393.6
5831.1707,14316.92
5831.8128,14154.87
5832.4548,14212.86
5833.0968,14134.09
5833.7388,14036.95
5834.3809,14106.18
5835.0229,14107.09
5835.6649,14058.94
5836.3069,13936.73
5836.949,14033.05
5837.591,14228.35
5838.233,14202.44
5838.875,14145.0
5839.517,13982.67
5840.1591,14221.12
5840.8011,14401.18
5841.4431,14589.24
5842.0851,14594.12
5842.7272,14288.22
5843.3692,14500.11
5844.0112,14389.17
5844.6532,14470.95
5845.2953,14230.52
5845.9373,14354.09
5846.5793,13910.84
5847.2213,14146.42
5847.8633,14058.3
5848.5054,14037.23
5849.1474,14100.16
5849.7894,14222.83
5850.4314,13842.12
5851.0735,13974.11
5851.7155,13866.9
5852.3575,13932.18
5852.9995,13679.57
5853.6416,13801.67
5854.2836,13381.83
5854.9256,13088.4
5855.5676,13184.88
5856.2097,12915.26
5856.8517,13180.98
5857.4937,12870.63
5858.1357,12895.83
5858.7777,12619.14
5859.4198,12431.76
5860.0618,12938.5
5860.7038,13289.6
5861.3458,13360.34
5861.9879,13650.0
5862.6299,13834.45
5863.2719,13363.31
5863.9139,13333.31
5864.556,13588.83
5865.198,13657.63
5865.84,13414.45
5866.482,13520.7
5867.1241,13596.11
5867.7661,13271.49
5868.4081,13375.36
5869.0501,13395.51
5869.6921,13555.26
5870.3342,13843.48
5870.9762,14001.0
5871.6182,13828.52
5872.2602,13765.9
5872.9023,13760.0
5873.5443,13834.15
5874.1863,13923.4
5874.8283,13713.59
5875.4704,13712.77
5876.1124,13767.5
5876.7544,13710.45
5877.3964,13531.67
5878.0384,13411.21
5878.6805,13380.19
5879.3225,13203.85
5879.9645,13184.13
5880.6065,13099.59
5881.2486,12925.8
5881.8906,12691.54
5882.5326,12637.25
5883.1746,12805.87
5883.8167,12878.8
5884.4587,12520.38
5885.1007,11816.52
5885.7427,11426.03
5886.3848,11148.1
5887.0268,10660.37
5887.6688,9948.164
5888.3108,9366.348
5888.9528,8860.469
5889.5949,8052.25
5890.2369,7308.687
5890.8789,6897.689
5891.5209,7100.618
5892.163,7432.911
5892.805,8068.034
5893.447,8280.07
5894.089,8370.63
5894.7311,8579.717
5895.3731,8701.336
5896.0151,8176.52
5896.6571,7893.919
5897.2991,8083.014
5897.9412,8352.965
5898.5832,9191.377
5899.2252,10313.17
5899.8672,10838.29
5900.5093,11119.79
5901.1513,11491.08
5901.7933,11947.39
5902.4353,12223.42
5903.0774,12567.81
5903.7194,12152.3
5904.3614,12898.3
5905.0034,12634.6
5905.6455,12942.46
5906.2875,13086.9
5906.9295,12980.84
5907.5715,12836.29
5908.2135,13018.69
5908.8556,13109.56
5909.4976,13465.08
5910.1396,13340.82
5910.7816,13509.43
5911.4237,12922.48
5912.0657,13220.63
5912.7077,13397.36
5913.3497,13075.68
5913.9918,13083.96
5914.6338,13081.3
5915.2758,12709.5
5915.9178,12461.54
5916.5599,12710.26
5917.2019,12621.14
5917.8439,12712.71
5918.4859,12883.66
5919.1279,13173.71
5919.77,12835.24
5920.412,13041.87
5921.054,12880.91
5921.696,13137.94
5922.3381,13184.12
5922.9801,13163.84
5923.6221,13238.85
5924.2641,13373.81
5924.9062,13554.34
5925.5482,13609.19
5926.1902,13507.99
5926.8322,13701.39
5927.4742,13536.3
5928.1163,13440.81
5928.7583,13315.76
5929.4003,13263.85
5930.0423,13526.15
5930.6844,13184.77
5931.3264,13260.14
5931.9684,13229.75
5932.6104,13295.39
5933.2525,13483.95
5933.8945,13347.39
5934.5365,13327.25
5935.1785,13488.45
5935.8206,13399.41
5936.4626,13458.72
5937.1046,13712.54
5937.7466,13793.2
5938.3886,13627.7
5939.0307,13474.53
5939.6727,13682.49
5940.3147,13898.62
5940.9567,13637.24
5941.5988,13297.23
5942.2408,13300.86
5942.8828,13201.85
5943.5248,13033.09
5944.1669,13265.49
5944.8089,13469.01
5945.4509,13650.11
5946.0929,13694.42
5946.7349,13468.64
5947.377,13477.64
5948.019,13424.23
5948.661,13325.72
5949.303,13281.58
5949.9451,13235.97
5950.5871,13229.94
5951.2291,13020.81
5951.8711,13127.65
5952.5132,13500.45
5953.1552,13512.33
5953.7972,13148.23
5954.4392,12964.02
5955.0813,13163.96
5955.7233,13533.42
5956.3653,13427.86
5957.0073,13272.36
5957.6493,13213.7
5958.2914,13206.43
5958.9334,13170.04
5959.5754,13445.12
5960.2174,13683.27
5960.8595,13785.2
5961.5015,13728.02
5962.1435,13838.76
5962.7855,13976.85
5963.4276,13969.17
5964.0696,13926.84
5964.7116,13814.62
5965.3536,13904.92
5965.9956,13784.25
5966.6377,13724.67
5967.2797,13682.76
5967.9217,13809.82
5968.5637,13953.29
5969.2058,14058.42
5969.8478,14079.73
5970.4898,13796.79
5971.1318,14100.63
5971.7739,14104.88
5972.4159,14048.35
5973.0579,13969.6
5973.6999,13953.94
5974.342,13681.42
5974.984,13440.61
5975.626,13700.2
5976.268,13610.56
5976.91,13481.1
5977.5521,13362.52
5978.1941,13311.93
5978.8361,13292.56
5979.4781,13247.01
5980.1202,13521.76
5980.7622,13806.87
5981.4042,13693.04
5982.0462,13617.9
5982.6883,13565.51
5983.3303,13527.63
5983.9723,13533.55
5984.6143,13360.9
5985.2564,13136.68
5985.8984,13098.68
5986.5404,13047.8
5987.1824,13255.79
5987.8244,13587.92
5988.4665,13305.94
5989.1085,13513.85
5989.7505,13658.72
5990.3925,13454.59
5991.0346,14116.09
5991.6766,14014.7
5992.3186,13820.79
5992.9606,13964.25
5993.6027,13839.25
5994.2447,13892.33
5994.8867,14169.12
5995.5287,14087.14
5996.1707,13867.61
5996.8128,13934.93
5997.4548,13957.15
5998.0968,13374.87
5998.7388,13554.63
5999.3809,13679.8
6000.0229,13689.47
6000.6649,13509.43
6001.3069,13524.93
6001.949,13431.64
6002.591,13415.54
6003.233,13543.04
6003.875,13369.9
6004.5171,13321.41
6005.1591,13620.04
6005.8011,13269.03
6006.4431,13475.17
6007.0851,13445.17
6007.7272,13463.48
6008.3692,13535.79
6009.0112,13208.06
6009.6532,12917.11
6010.2953,13057.85
6010.9373,13177.41
6011.5793,13540.27
6012.2213,13747.25
6012.8634,13730.01
6013.5054,13713.83
6014.1474,13257.41
6014.7894,12806.56
6015.4314,13253.36
6016.0735,13483.92
6016.7155,13512.31
6017.3575,13422.24
6017.9995,13396.68
6018.6416,13292.24
6019.2836,13001.38
6019.9256,13541.81
6020.5676,13333.02
6021.2097,13029.6
6021.8517,12962.61
6022.4937,13209.62
6023.1357,12855.88
6023.7778,13190.48
6024.4198,13317.06
6025.0618,13344.79
6025.7038,13491.67
6026.3458,13603.27
6026.9879,13905.71
6027.6299,13648.54
6028.2719,13869.15
6028.9139,14061.21
6029.556,14145.59
6030.198,14430.25
6030.84,14592.8
6031.482,14170.46
6032.1241,14171.15
6032.7661,14204.04
6033.4081,14168.35
6034.0501,14116.34
6034.6922,14375.55
6035.3342,14072.58
6035.9762,14633.4
6036.6182,14284.19
6037.2602,14639.79
6037.9023,14354.84
6038.5443,14145.77
6039.1863,14223.56
6039.8283,14016.88
6040.4704,13944.68
6041.1124,13780.64
6041.7544,14402.29
6042.3964,14000.95
6043.0385,14432.72
6043.6805,14277.73
6044.3225,14220.88
6044.9645,14482.51
6045.6065,14513.11
6046.2486,14479.74
6046.8906,14357.49
6047.5326,14547.75
6048.1746,14352.38
6048.8167,14483.27
6049.4587,14378.31
6050.1007,14685.17
6050.7427,14294.22
6051.3848,14219.73
6052.0268,14692.12
6052.6688,14330.38
6053.3108,14434.52
6053.9529,14091.48
6054.5949,14122.65
6055.2369,14333.04
6055.8789,14191.54
6056.5209,13900.48
6057.163,13851.0
6057.805,13871.63
6058.447,14075.68
6059.089,14322.45
6059.7311,14332.09
6060.3731,14149.54
6061.0151,14228.33
6061.6571,14204.1
6062.2992,14328.63
6062.9412,14037.28
6063.5832,14318.57
6064.2252,13929.53
6064.8672,13559.31
6065.5093,13667.95
6066.1513,13576.21
6066.7933,13452.47
6067.4353,13735.66
6068.0774,14271.63
6068.7194,14380.75
6069.3614,14365.17
6070.0034,14659.59
6070.6455,14501.08
6071.2875,14450.62
6071.9295,14367.08
6072.5715,14628.03
6073.2136,14579.52
6073.8556,14596.09
6074.4976,14672.56
6075.1396,14615.49
6075.7816,14250.88
6076.4237,14279.66
6077.0657,14212.7
6077.7077,14147.27
6078.3497,14132.44
6078.9918,13783.93
6079.6338,14071.54
6080.2758,13494.41
6080.9178,13811.69
6081.5599,13887.82
6082.2019,13949.77
6082.8439,13927.17
6083.4859,13499.34
6084.1279,13835.52
6084.77,13875.23
6085.412,13496.77
6086.054,13881.18
6086.696,13837.77
6087.3381,13843.55
6087.9801,13849.01
6088.6221,13783.94
6089.2641,13786.01
6089.9062,13960.29
6090.5482,14215.86
6091.1902,13490.55
6091.8322,13638.65
6092.4743,13809.07
6093.1163,14016.3
6093.7583,13810.09
6094.4003,13879.54
6095.0423,14183.24
6095.6844,14077.63
6096.3264,13979.7
6096.9684,14288.77
6097.6104,14052.99
6098.2525,14015.73
6098.8945,14202.34
6099.5365,13974.97
6100.1785,13615.77
6100.8206,13874.34
6101.4626,13475.65
6102.1046,13012.13
6102.7466,13216.02
6103.3887,12650.69
6104.0307,12200.95
6104.6727,12386.56
6105.3147,12741.95
6105.9567,13619.17
6106.5988,13908.01
6107.2408,13965.76
6107.8828,14403.22
6108.5248,14011.13
6109.1669,13958.6
6109.8089,14145.77
6110.4509,14526.69
6111.0929,14327.4
6111.735,14316.86
6112.377,14071.08
6113.019,14244.36
6113.661,14261.89
6114.303,14210.8
6114.9451,13971.19
6115.5871,14146.41
6116.2291,14470.2
6116.8711,14460.45
6117.5132,13816.08
6118.1552,14057.03
6118.7972,13684.09
6119.4392,13278.23
6120.0813,13192.09
6120.7233,12911.57
6121.3653,12715.08
6122.0073,12709.37
6122.6494,12198.01
6123.2914,12190.71
6123.9334,11907.29
6124.5754,12338.86
6125.2174,13037.4
6125.8595,13590.16
6126.5015,13643.85
6127.1435,14015.19
6127.7855,13738.15
6128.4276,14047.29
6129.0696,13957.55
6129.7116,14060.17
6130.3536,14319.01
6130.9957,14042.07
6131.6377,14057.93
6132.2797,14383.11
6132.9217,14162.45
6133.5637,14142.62
6134.2058,13897.71
6134.8478,13342.69
6135.4898,13441.22
6136.1318,13172.96
6136.7739,13044.49
6137.4159,12678.91
6138.0579,12375.12
6138.6999,12364.81
6139.342,12547.08
6139.984,12957.91
6140.626,13715.42
6141.268,13882.35
6141.9101,13671.58
6142.5521,13898.24
6143.1941,13618.54
6143.8361,13953.45
6144.4781,14044.79
6145.1202,14351.79
6145.7622,14357.0
6146.4042,14362.64
6147.0462,14375.98
6147.6883,14253.28
6148.3303,13952.26
6148.9723,14123.43
6149.6143,14026.9
6150.2564,14064.44
6150.8984,13951.05
6151.5404,13831.17
6152.1824,13746.22
6152.8245,13884.49
6153.4665,13857.4
6154.1085,13925.29
6154.7505,13917.92
6155.3925,13674.15
6156.0346,13558.8
6156.6766,13528.57
6157.3186,13359.25
6157.9606,13405.43
6158.6027,13291.23
6159.2447,12947.49
6159.8867,12702.58
6160.5287,12178.43
6161.1708,11562.34
6161.8128,11105.4
6162.4548,10684.8
6163.0968,10226.89
6163.7388,10223.42
6164.3809,10814.73
6165.0229,11312.89
6165.6649,11977.47
6166.3069,12507.53
6166.949,12464.63
6167.591,12263.37
6168.233,12217.31
6168.875,12318.36
6169.5171,12188.13
6170.1591,11994.9
6170.8011,11738.74
6171.4431,11801.94
6172.0852,12312.11
6172.7272,12884.08
6173.3692,13184.32
6174.0112,13378.37
6174.6532,13389.53
6175.2953,13490.22
6175.9373,13526.81
6176.5793,13316.53
6177.2213,13417.88
6177.8634,13585.66
6178.5054,13630.49
6179.1474,13687.01
6179.7894,13719.4
6180.4315,13682.06
6181.0735,13776.83
6181.7155,13762.17
6182.3575,13723.21
6182.9995,13957.27
6183.6416,14019.5
6184.2836,13935.68
6184.9256,13851.1
6185.5676,14036.8
6186.2097,13922.91
6186.8517,13927.19
6187.4937,13396.88
6188.1357,13434.23
6188.7778,13164.69
6189.4198,13052.55
6190.0618,12826.81
6190.7038,12876.38
6191.3459,12804.01
6191.9879,12797.37
6192.6299,12492.88
6193.2719,12445.89
6193.9139,12989.17
6194.556,13320.77
6195.198,13695.29
6195.84,13820.92
6196.482,13835.41
6197.1241,13441.77
6197.7661,13521.94
6198.4081,13435.32
6199.0501,13561.44
6199.6922,13199.66
6200.3342,13316.14
6200.9762,13101.19
6201.6182,13109.74
6202.2602,13748.23
6202.9023,13695.6
6203.5443,13835.83
6204.1863,14254.81
6204.8283,14183.74
6205.4704,13811.79
6206.1124,13907.3
6206.7544,14121.25
6207.3964,13899.81
6208.0385,14159.33
6208.6805,14187.46
6209.3225,14017.34
6209.9645,13586.82
6210.6066,13662.66
6211.2486,13660.51
6211.8906,13578.52
6212.5326,13254.81
6213.1746,13035.72
6213.8167,12827.12
6214.4587,12924.43
6215.1007,12704.8
6215.7427,12391.36
6216.3848,12383.96
6217.0268,12449.78
6217.6688,12507.19
6218.3108,12443.94
6218.9529,12800.25
6219.5949,12968.5
6220.2369,12800.96
6220.8789,12609.8
6221.521,12706.86
6222.163,12871.83
6222.805,13103.51
6223.447,13004.32
6224.089,13113.3
6224.7311,13055.61
6225.3731,12948.34
6226.0151,12944.22
6226.6571,13135.18
6227.2992,12984.58
6227.9412,12731.32
6228.5832,12614.12
6229.2252,12717.61
6229.8673,12691.63
6230.5093,12563.41
6231.1513,12117.83
6231.7933,11801.26
6232.4353,11960.6
6233.0774,12127.23
6233.7194,12368.55
6234.3614,12806.43
6235.0034,12959.21
6235.6455,13069.01
6236.2875,13259.36
6236.9295,13323.31
6237.5715,13363.48
6238.2136,13062.0
6238.8556,12975.99
6239.4976,13008.13
6240.1396,12760.8
6240.7817,12580.62
6241.4237,12525.69
6242.0657,12572.06
6242.7077,12392.9
6243.3497,12318.2
6243.9918,12336.6
6244.6338,12303.73
6245.2758,12105.47
6245.9178,12472.08
6246.5599,12594.14
6247.2019,12549.99
6247.8439,12708.52
6248.4859,12767.74
6249.128,12863.12
6249.77,13224.82
6250.412,13205.28
6251.054,13053.06
6251.696,12925.02
6252.3381,12753.08
6252.9801,12374.2
6253.6221,12061.07
6254.2641,12068.22
6254.9062,12022.47
6255.5482,12106.22
6256.1902,11935.34
6256.8322,12458.47
6257.4743,12220.45
6258.1163,12133.29
6258.7583,12171.68
6259.4003,12014.81
6260.0424,12251.3
6260.6844,12219.03
6261.3264,12716.0
6261.9684,12961.62
6262.6104,12918.24
6263.2525,12936.11
6263.8945,13143.79
6264.5365,13381.97
6265.1785,13197.56
6265.8206,13316.67
6266.4626,13006.74
6267.1046,12967.15
6267.7466,13171.4
6268.3887,13333.54
6269.0307,13348.54
6269.6727,13390.25
6270.3147,13413.33
6270.9567,13338.61
6271.5988,13248.45
6272.2408,13065.8
6272.8828,13242.99
6273.5248,13303.45
6274.1669,13248.9
6274.8089,13304.38
6275.4509,13379.76
6276.0929,13271.44
6276.735,13106.87
6277.377,12984.74
6278.019,12753.8
6278.661,12689.68
6279.3031,12611.8
6279.9451,12608.65
6280.5871,12566.65
6281.2291,12585.88
6281.8711,12531.0
6282.5132,12670.24
6283.1552,12990.16
6283.7972,13198.4
6284.4392,13248.07
6285.0813,13346.08
6285.7233,13323.12
6286.3653,13432.6
6287.0073,13597.68
6287.6494,13468.03
6288.2914,13539.0
6288.9334,13776.51
6289.5754,13551.47
6290.2175,13667.19
6290.8595,13466.83
6291.5015,13461.13
6292.1435,13489.93
6292.7855,13251.35
6293.4276,13151.47
6294.0696,13476.08
6294.7116,13233.98
6295.3536,13135.49
6295.9957,13246.29
6296.6377,13068.11
6297.2797,13005.42
6297.9217,13174.74
6298.5638,12540.92
6299.2058,12463.35
6299.8478,12366.99
6300.4898,13057.87
6301.1318,12616.67
6301.7739,12673.3
6302.4159,12508.38
6303.0579,12488.04
6303.6999,12296.66
6304.342,12723.88
6304.984,13075.53
6305.626,13174.48
6306.268,13390.32
6306.9101,13119.33
6307.5521,13358.79
6308.1941,13541.32
6308.8361,13820.88
6309.4782,13828.62
6310.1202,13776.16
6310.7622,13921.6
6311.4042,13715.36
6312.0462,13399.56
6312.6883,13055.17
6313.3303,13270.43
6313.9723,13289.94
6314.6143,13307.34
6365.3342,13279.46
6365.9762,13588.36
6366.6182,13624.44
6367.2603,13760.81
6367.9023,13801.91
6368.5443,14017.38
6369.1863,13934.56
6369.8283,14098.47
6370.4704,14350.96
6371.1124,14251.44
6371.7544,14060.07
6372.3964,14271.86
6373.0385,14270.11
6373.6805,14413.28
6374.3225,14331.07
6374.9645,14226.95
6375.6066,14297.97
6376.2486,14299.76
6376.8906,14167.47
6377.5326,13964.99
6378.1747,13831.57
6378.8167,13838.35
6379.4587,13733.9
6380.1007,13573.37
6380.7427,13528.05
6381.3848,13483.72
6382.0268,13512.6
6382.6688,13760.97
6383.3108,13743.69
6383.9529,13778.71
6384.5949,13925.04
6385.2369,13847.29
6385.8789,13870.08
6386.521,13992.43
6387.163,13809.73
6387.805,13780.78
6388.447,14020.26
6389.089,13654.87
6389.7311,13841.68
6390.3731,13815.63
6391.0151,13644.5
6391.6571,13640.97
6392.2992,13442.09
6392.9412,13469.46
6393.5832,13377.28
6394.2252,13086.09
6394.8673,13247.3
6395.5093,13137.68
6396.1513,13368.96
6396.7933,13699.38
6397.4354,13754.04
6398.0774,13483.07
6398.7194,13547.83
6399.3614,13585.82
6400.0034,13470.65
6400.6455,13040.05
6401.2875,12881.34
6401.9295,12866.02
6402.5715,13100.58
6403.2136,13684.78
6403.8556,14074.39
6404.4976,14033.84
6405.1396,14027.85
6405.7817,13984.87
6406.4237,14051.13
6407.0657,13983.13
6407.7077,13831.58
6408.3498,13605.85
6408.9918,13406.52
6409.6338,13270.17
6410.2758,13498.8
6410.9178,13444.09
6411.5599,13726.31
6412.2019,13725.19
6412.8439,13305.85
6413.4859,13365.38
6414.128,13574.22
6414.77,13544.62
6415.412,14057.35
6416.054,14085.37
6416.6961,14310.19
6417.3381,14172.84
6417.9801,13958.35
6418.6221,13713.8
6419.2641,13637.54
6419.9062,13679.41
6420.5482,13647.82
6421.1902,13494.9
6421.8322,13558.03
6422.4743,13574.52
6423.1163,13572.82
6423.7583,14039.41
6424.4003,14182.18
6425.0424,14184.35
6425.6844,14420.64
6426.3264,14386.57
6426.9684,14236.48
6427.6105,14112.6
6428.2525,13997.91
6428.8945,14064.8
6429.5365,14008.86
6430.1785,13944.53
6430.8206,13824.06
6431.4626,13692.75
6432.1046,13481.73
6432.7466,13524.93
6433.3887,13700.3
6434.0307,13948.7
6434.6727,13955.85
6435.3147,13891.98
6435.9568,14126.46
6436.5988,13889.88
6437.2408,13599.48
6437.8828,13947.83
6438.5248,13503.37
6439.1669,13416.27
6439.8089,13158.91
6440.4509,12602.78
6441.0929,12807.42
6441.735,13370.65
6442.377,13770.49
6443.019,14050.29
6443.661,14434.49
6444.3031,14436.24
6444.9451,14438.36
6445.5871,14504.17
6446.2291,14696.84
6446.8712,14333.67
6447.5132,14080.97
6448.1552,13862.24
6448.7972,13739.12
6449.4392,13589.47
6450.0813,13360.84
6450.7233,13175.28
6451.3653,12942.49
6452.0073,13001.96
6452.6494,13257.56
6453.2914,13552.44
6453.9334,13672.62
6454.5754,14010.65
6455.2175,14124.54
6455.8595,14020.16
6456.5015,13839.23
6457.1435,13821.43
6457.7856,13988.19
6458.4276,14045.91
6459.0696,13960.72
6459.7116,14017.97
6460.3536,13947.42
6460.9957,13705.29
6461.6377,13527.59
6462.2797,13439.26
6462.9217,13209.09
6463.5638,12738.38
6464.2058,12670.16
6464.8478,12863.79
6465.4898,13293.7
6466.1319,13693.97
6466.7739,13973.95
6467.4159,14170.84
6468.0579,14332.64
6468.6999,14163.98
6469.342,14062.75
6469.984,14106.64
6470.626,13800.79
6471.268,13535.27
6471.9101,13614.71
6472.5521,13505.42
6473.1941,13423.94
6473.8361,13586.59
6474.4782,13639.36
6475.1202,13723.19
6475.7622,13962.42
6476.4042,13936.15
6477.0463,13751.23
6477.6883,13877.94
6478.3303,13863.56
6478.9723,14196.5
6479.6143,13983.31
6480.2564,13889.82
6480.8984,13984.47
6481.5404,14005.85
6482.1824,13796.42
6482.8245,13642.06
6483.4665,13621.12
6484.1085,13328.69
6484.7505,13525.59
6485.3926,13671.11
6486.0346,13762.56
6486.6766,13994.32
6487.3186,14150.62
6487.9606,14174.76
6488.6027,14263.05
6489.2447,14065.87
6489.8867,13983.39
6490.5287,13810.05
6491.1708,13631.79
6491.8128,13257.46
6492.4548,12946.42
6493.0968,12675.0
6493.7389,12617.77
6494.3809,12327.56
6495.0229,11847.82
6495.6649,11391.3
6496.307,11340.91
6496.949,11313.38
6497.591,11461.27
6499.5171,12710.09
6500.1591,12721.72
6500.8011,12940.21
6501.4431,12865.53
6502.0852,13253.61
6502.7272,13653.6
6503.3692,13665.38
6504.0112,13978.28
6504.6533,14100.56
6505.2953,14168.62
6505.9373,13977.33
6506.5793,14052.15
6507.2213,14195.79
6507.8634,14381.77
6508.5054,14341.76
6509.1474,14199.89
6509.7894,14113.43
6510.4315,13799.03
6511.0735,13789.14
6511.7155,14003.05
6512.3575,14207.82
6512.9996,14282.78
6513.6416,14144.07
6514.2836,13969.26
6514.9256,13610.17
6515.5677,13537.49
6516.2097,13862.93
6516.8517,13798.61
6517.4937,13824.17
6518.1357,13794.12
6518.7778,13374.64
6519.4198,13394.03
6520.0618,13642.38
6520.7038,13622.72
6521.3459,13861.44
6521.9879,13958.14
6522.6299,14282.38
6523.2719,14506.36
6523.914,14200.46
6524.556,14104.32
6525.198,14154.02
6525.84,14058.78
6526.4821,14259.88
6527.1241,14309.73
6527.7661,14147.03
6528.4081,14049.48
6529.0501,14034.7
6529.6922,14239.12
6530.3342,14312.17
6530.9762,14333.74
6531.6182,14331.89
6532.2603,14057.3
6532.9023,13893.57
6533.5443,14005.24
6534.1863,13986.85
6534.8284,13672.77
6535.4704,13784.31
6536.1124,14067.1
6536.7544,14161.95
6537.3964,14333.45
6538.0385,14138.18
6538.6805,14153.57
6539.3225,14568.1
6539.9645,14318.15
6540.6066,14185.87
6541.2486,14224.08
6541.8906,14116.28
6542.5326,14397.66
6543.1747,14236.19
6543.8167,14082.71
6544.4587,13970.59
6545.1007,13714.6
6545.7428,13488.29
6546.3848,13566.69
6547.0268,13535.3
6547.6688,13439.39
6548.3108,13544.45
6548.9529,13592.11
6549.5949,13665.49
6550.2369,13991.11
6550.8789,13892.93
6551.521,13780.39
6552.163,13612.71
6552.805,13750.92
6553.447,13579.49
6554.0891,13420.7
6554.7311,13358.96
6555.3731,13200.17
6556.0151,13097.81
6556.6571,13270.3
6557.2992,13304.54
6557.9412,13266.08
6558.5832,13437.73
6559.2252,13621.2
6559.8673,13942.47
6560.5093,13972.76
6561.1513,14038.87
6561.7933,14106.51
6562.4354,14076.43
6563.0774,14227.79
6563.7194,14348.76
6564.3614,14408.73
6565.0035,14290.99
6565.6455,13979.69
6566.2875,13924.12
6566.9295,13966.2
6567.5715,13966.53
6568.2136,14135.51
6568.8556,14253.07
6569.4976,13607.11
6570.1396,13416.82
6570.7817,13418.31
6571.4237,13203.77
6572.0657,13210.07
6572.7077,12904.06
6573.3498,13166.99
6573.9918,13098.51
6574.6338,12896.99
6575.2758,12726.33
6575.9179,12890.45
6576.5599,13088.98
6577.2019,13324.27
6577.8439,13411.23
6578.4859,13522.07
6579.128,13714.13
6579.77,13882.3
6580.412,13823.76
6581.054,13802.8
6581.6961,13668.55
6582.3381,13570.46
6582.9801,13482.68
6583.6221,13665.22
6584.2642,13618.82
6584.9062,13573.89
6585.5482,13756.63
6586.1902,14017.33
6586.8322,13815.23
6587.4743,13607.56
6588.1163,13528.76
6588.7583,13863.78
6589.4003,13736.61
6590.0424,13939.31
6590.6844,13599.51
6591.3264,13481.73
6591.9684,13443.71
6592.6105,13266.21
6593.2525,13314.34
6593.8945,12951.89
6594.5365,12670.04
6595.1786,12527.87
6595.8206,12723.06
6596.4626,13100.02
6597.1046,13266.1
6597.7466,13360.55
6598.3887,13532.76
6599.0307,13606.78
6599.6727,13418.5
6600.3147,13395.39
6600.9568,13359.15
6601.5988,13600.77
6602.2408,13951.17
6602.8828,13811.16
6603.5249,13556.71
6604.1669,13647.81
6604.8089,13455.42
6605.4509,13752.09
6606.0929,13397.13
6606.735,13478.16
6607.377,13269.41
6608.019,13238.81
6608.661,13281.25
6609.3031,13349.56
6609.9451,13404.08
6610.5871,13202.97
6611.2291,13247.45
6611.8712,13348.01
6612.5132,13520.17
6613.1552,13505.35
6613.7972,13524.43
6614.4393,13559.85
6615.0813,13537.58
6615.7233,13720.24
6616.3653,13690.64
6617.0073,13795.4
6617.6494,13626.03
6618.2914,13444.93
6618.9334,13735.96
6619.5754,13583.26
6620.2175,13594.45
6620.8595,13447.49
6621.5015,13767.21
6622.1435,13626.99
6622.7856,13435.91
6623.4276,13510.01
6624.0696,13384.33
6624.7116,13350.2
6625.3536,13233.33
6625.9957,13168.38
6626.6377,13142.64
6627.2797,13267.43
6627.9217,13285.37
6628.5638,13326.4
6629.2058,13360.05
6629.8478,13256.13
6630.4898,13068.21
6631.1319,13079.27
6631.7739,12876.33
6632.4159,12846.31
6633.0579,13064.44
6633.7,13009.51
6634.342,12767.9
6634.984,12614.78
6635.626,12877.18
6636.268,12804.08
6636.9101,12900.67
6637.5521,13114.25
6638.1941,13184.44
6638.8361,13190.33
6639.4782,13328.99
6640.1202,13197.31
6640.7622,13037.12
6641.4042,13021.26
6642.0463,13113.43
6642.6883,13066.6
6643.3303,12866.66
6643.9723,12800.73
6644.6144,12865.59
6645.2564,12958.3
6645.8984,13096.76
6646.5404,13154.47
6647.1824,12942.94
6647.8245,13254.46
6648.4665,13065.24
6649.1085,12966.21
6649.7505,13195.58
6650.3926,13073.56
6651.0346,13145.43
6651.6766,13012.37
6652.3186,12808.4
6652.9607,13002.89
6653.6027,12917.35
6654.2447,12971.58
6654.8867,13157.36
6655.5287,13024.86
6656.1708,13017.73
6656.8128,12876.65
6657.4548,12639.22
6658.0968,13052.72
6658.7389,13237.64
6659.3809,13176.19
6660.0229,12929.72
6660.6649,12839.4
6661.307,12893.53
6661.949,12657.37
6662.591,12355.51
6663.233,12518.89
6663.8751,12595.66
6664.5171,12061.23
6665.1591,12220.48
6665.8011,12437.51
6666.4431,12511.12
6667.0852,12560.64
6667.7272,12618.65
6668.3692,12564.34
6669.0112,12646.42
6669.6533,12730.07
6670.2953,12724.11
6670.9373,12828.17
6671.5793,12996.85
6672.2214,12890.55
6672.8634,12875.49
6673.5054,12930.0
6674.1474,12783.75
6674.7894,12604.69
6675.4315,12670.88
6676.0735,12467.14
6676.7155,12425.53
6677.3575,12409.99
6677.9996,12555.66
6678.6416,12412.35
6679.2836,12191.37
6679.9256,12191.32
6680.5677,12281.65
6681.2097,12354.46
6681.8517,12434.85
6682.4937,12639.98
6683.1358,12703.91
6683.7778,12700.55
6684.4198,12519.28
6685.0618,12482.55
6685.7038,12427.95
6686.3459,12536.56
6686.9879,12561.48
6687.6299,12657.74
6688.2719,12559.57
6688.914,12559.32
6689.556,12507.29
6690.198,12665.41
6690.84,12730.91
6691.4821,12503.58
6692.1241,12415.12
6692.7661,12494.3
6693.4081,12515.88
6694.0501,12585.1
6694.6922,12524.77
6695.3342,12389.18
6695.9762,12415.11
6696.6182,12365.91
6697.2603,12155.83
6697.9023,12044.69
6698.5443,12107.21
6699.1863,12227.81
6699.8284,12258.49
6700.4704,12436.52
6701.1124,12264.91
6701.7544,12232.58
6702.3965,12196.65
6703.0385,12056.08
6703.6805,12349.36
6704.3225,12380.03
6704.9645,12273.09
6705.6066,12279.39
6706.2486,12087.02
6706.8906,12130.72
6707.5326,12211.76
6708.1747,12313.09
6708.8167,12247.89
6709.4587,12299.2
6710.1007,12373.46
6710.7428,12474.9
6711.3848,12280.98
6712.0268,11995.33
6712.6688,11967.54
6713.3109,11954.21
6713.9529,12115.52
6714.5949,12026.74
6715.2369,11720.64
6715.8789,11680.71
6716.521,12094.85
6717.163,11784.88
6717.805,11590.85
6718.447,11439.64
6719.0891,11370.62
6719.7311,11399.1
6720.3731,11691.84
6721.0151,11882.56
6721.6572,11905.33
6722.2992,12017.14
6722.9412,12040.27
6723.5832,11934.56
6724.2252,11855.63
6724.8673,11843.14
6725.5093,12080.65
6726.1513,11797.46
6726.7933,11698.44
6727.4354,11798.52
6728.0774,11656.89
6728.7194,11801.2
6729.3614,11946.44
6730.0035,11953.66
6730.6455,12007.44
6731.2875,11949.63
6731.9295,11896.74
6732.5716,12066.57
6733.2136,11968.63
6733.8556,11825.39
6734.4976,11788.8
6735.1396,11869.56
6735.7817,11877.43
6736.4237,11895.09
6737.0657,11996.12
6737.7077,12082.96
6738.3498,11845.86
6738.9918,11942.41
6739.6338,11908.12
6740.2758,11806.43
6740.9179,11715.65
6741.5599,11589.45
6742.2019,11927.02
6742.8439,11856.92
6743.4859,11856.26
6744.128,11693.21
6744.77,11579.41
6745.412,11806.0
6746.054,11774.99
6746.6961,11603.19
6747.3381,11628.9
6747.9801,11503.62
6748.6221,11619.05
6749.2642,11605.83
6749.9062,11480.07
6750.5482,11194.28
6751.1902,11348.45
6751.8323,11248.51
6752.4743,11499.94
6753.1163,11384.47
6753.7583,11391.01
6754.4003,11520.14
6755.0424,11528.2
6755.6844,11581.42
6756.3264,11716.36
6756.9684,11864.05
6757.6105,11964.46
6758.2525,11885.92
6758.8945,11832.4
6759.5365,11681.29
6760.1786,11576.24
6760.8206,11712.45
6761.4626,11750.91
6762.1046,11607.76
6762.7467,11782.63
6763.3887,11676.82
6764.0307,11637.8
6764.6727,11708.14
6765.3147,11679.32
6765.9568,11385.84
6766.5988,11427.46
6767.2408,11412.85
6767.8828,11531.77
6768.5249,11496.55
6769.1669,11306.44
6769.8089,11310.79
6770.4509,11394.39
6771.093,11551.33
6771.735,11359.51
6772.377,11193.61
6773.019,11484.62
6773.661,11647.79
6774.3031,11543.25
6774.9451,11504.89
6775.5871,11724.51
6776.2291,11860.64
6776.8712,11769.17
6777.5132,11815.65
6778.1552,11600.06
6778.7972,11459.58
6779.4393,11508.75
6780.0813,11581.52
6780.7233,11619.09
6781.3653,11612.75
6782.0074,11535.56
6782.6494,11278.98
6783.2914,11322.92
6783.9334,11362.29
6784.5754,10979.54
6785.2175,10990.97
6785.8595,10977.59
6786.5015,11124.94
6787.1435,11105.75
6787.7856,11178.52
6788.4276,11110.43
6789.0696,11028.47
6789.7116,11260.36
6790.3537,11214.41
6790.9957,11174.22
6791.6377,11092.04
6792.2797,11269.41
6792.9217,11077.83
6793.5638,11096.55
6794.2058,11156.53
6794.8478,10800.87
6795.4898,11017.56
6796.1319,10906.6
6796.7739,11179.77
6797.4159,11069.92
6798.0579,11028.83
6798.7,11087.94
6799.342,11175.47
6799.984,11253.17
6800.626,11168.0
6801.2681,11007.88
6801.9101,11131.11
6802.5521,11218.4
6803.1941,11320.41
6803.8361,11128.03
6804.4782,11232.77
6805.1202,11118.96
6805.7622,11070.75
6806.4042,11025.2
6807.0463,11118.31
6807.6883,11092.62
6808.3303,11019.82
6808.9723,11045.95
6809.6144,11102.0
6810.2564,11216.05
6810.8984,11232.81
6811.5404,11093.54
6812.1824,11066.13
6812.8245,11077.76
6813.4665,10944.32
6814.1085,11029.91
6814.7505,10977.52
6815.3926,10813.18
6816.0346,10842.4
6816.6766,11187.59
6817.3186,10855.91
6817.9607,11017.73
6818.6027,10923.73
6819.2447,11006.41
6819.8867,11104.12
6820.5288,10957.23
6821.1708,10800.69
6821.8128,10751.19
6822.4548,10856.0
6823.0968,10861.27
6823.7389,10769.45
6824.3809,10922.78
6825.0229,11052.84
6825.6649,11054.22
6826.307,10765.21
6826.949,10762.1
6827.591,10934.68
6828.233,10759.23
6828.8751,10762.82
6829.5171,10520.75
6830.1591,10854.6
6830.8011,10672.29
6831.4432,10855.77
6832.0852,11047.02
6832.7272,11098.3
6833.3692,10820.64
6834.0112,10757.21
6834.6533,10841.63
6835.2953,10747.33
6835.9373,10719.33
6836.5793,10682.22
6837.2214,10824.8
6837.8634,10904.84
6838.5054,10608.43
6839.1474,10385.78
6839.7895,10506.87
6840.4315,10547.22
6841.0735,10515.67
6841.7155,10451.21
6842.3575,10372.79
6842.9996,10190.59
6843.6416,10040.35
6844.2836,10174.71
6844.9256,10338.77
6845.5677,10500.22
6846.2097,10358.24
6846.8517,10539.37
6847.4937,10667.31
6848.1358,10516.26
6848.7778,10504.08
6849.4198,10635.18
6850.0618,10452.86
6850.7039,10391.71
6851.3459,10470.83
6851.9879,10511.72
6852.6299,10518.91
6853.2719,10453.19
6853.914,10323.91
6854.556,10464.06
6855.198,10454.59
6855.84,10113.08
6856.4821,10062.14
6857.1241,10105.45
6857.7661,10179.95
6858.4081,9999.018
6859.0502,10194.41
6859.6922,10132.34
6860.3342,10216.13
6860.9762,10321.88
6861.6182,10360.32
6862.2603,10157.36
6862.9023,10017.22
6863.5443,10029.61
6864.1863,10041.18
6864.8284,9943.88
6865.4704,9564.088
6866.1124,9419.355
6866.7544,9346.975
6867.3965,9230.668
6868.0385,8439.014
6868.6805,8092.284
6869.3225,7678.888
6869.9646,6789.133
6870.6066,6498.88
6871.2486,6680.381
6871.8906,7005.404
6872.5326,7159.013
6873.1747,7184.771
6873.8167,7214.224
6874.4587,7312.846
6875.1007,7509.443
6875.7428,7783.257
6876.3848,8053.09
6877.0268,8253.6
6877.6688,8347.06
6878.3109,8436.972
6878.9529,8588.643
6879.5949,8735.627
6880.2369,9018.816
6880.879,9041.589
6881.521,9183.739
6882.163,9331.65
6882.805,9280.754
6883.447,9129.248
6884.0891,9090.054
6884.7311,9121.98
6885.3731,9258.884
6886.0151,9101.172
6886.6572,9129.796
6887.2992,8947.962
6887.9412,8780.678
6888.5832,8658.46
6889.2253,8840.562
6889.8673,8866.941
6890.5093,8816.157
6891.1513,8783.733
6891.7933,8768.362
6892.4354,8967.061
6893.0774,9124.288
6893.7194,8947.733
6894.3614,8808.081
6895.0035,8712.185
6895.6455,8826.702
6896.2875,8843.953
6896.9295,9122.476
6897.5716,8934.962
6898.2136,8724.292
6898.8556,8593.123
6899.4976,8756.558
6900.1397,9094.212
6900.7817,9368.282
6901.4237,9319.297
6902.0657,8942.995
6902.7077,8815.919
6903.3498,8887.015
6903.9918,9170.358
6904.6338,9550.801
6905.2758,9474.24
6905.9179,8966.463
6906.5599,7633.117
6907.2019,8321.004
6907.8439,9139.065
6908.486,9478.446
6909.128,9537.943
6909.77,9448.872
6910.412,9383.675
6911.054,9294.816
6911.6961,9270.008
6912.3381,9277.933
6912.9801,9494.717
6913.6221,9782.801
6914.2642,9426.533
6914.9062,9096.896
6915.5482,9212.089
6916.1902,9150.92
6916.8323,9158.038
6917.4743,9335.047
6918.1163,9376.568
6918.7583,9517.391
6919.4004,9393.131
6920.0424,9410.407
6920.6844,9365.665
6921.3264,9345.923
6921.9684,9425.356
6922.6105,9418.525
6923.2525,9469.783
6923.8945,9657.647
6924.5365,9678.827
6925.1786,9268.48
6925.8206,8925.252
6926.4626,9189.581
6927.1046,9163.983
6927.7467,9244.786
6928.3887,9578.278
6929.0307,9738.771
6929.6727,9720.461
6930.3147,9615.193
6930.9568,9714.213
6931.5988,9661.792
6932.2408,9554.454
6932.8828,9513.667
6933.5249,9662.982
6934.1669,9464.553
6934.8089,9420.251
6935.4509,9361.898
6936.093,9445.168
6936.735,9517.141
6937.377,9462.096
6938.019,9620.018
6938.6611,9564.625
6939.3031,9604.393
6939.9451,9450.822
6940.5871,9496.563
6941.2291,9334.329
6941.8712,9200.823
6942.5132,8902.532
6943.1552,9131.233
6943.7972,9155.293
6944.4393,9372.537
6945.0813,9330.514
6945.7233,9308.193
6946.3653,9367.528
6947.0074,9317.313
6947.6494,9325.854
