wavelength,flux
4987.5647,5691.379
4988.2067,5691.44
4988.8488,5691.5
4989.4908,5654.111
4990.1328,5560.326
4990.7748,5536.393
4991.4169,5513.547
4992.0589,5394.675
4992.7009,5328.48
4993.343,5537.948
4993.985,5768.193
4994.627,6051.125
4995.2691,5793.828
4995.9111,5667.429
4996.5531,5715.06
4997.1952,5727.704
4997.8372,5628.568
4998.4792,5508.093
4999.1213,5492.463
4999.7633,5358.243
5000.4053,5118.05
5001.0474,5050.12
5001.6894,5128.218
5002.3314,5000.358
5002.9735,4954.47
5003.6155,4973.899
5004.2575,4945.011
5004.8996,5125.431
5005.5416,5004.337
5006.1836,4989.424
5006.8256,5015.979
5007.4677,5151.911
5008.1097,4991.334
5008.7517,5233.115
5009.3938,5396.762
5010.0358,5578.607
5010.6778,5305.445
5011.3199,5287.282
5011.9619,5177.811
5012.6039,5092.395
5013.246,5017.272
5013.888,4873.745
5014.53,4933.399
5015.1721,4921.094
5015.8141,4852.435
5016.4561,4877.047
5017.0982,5309.979
5017.7402,5403.295
5018.3822,5495.335
5019.0243,5672.373
5019.6663,5282.389
5020.3083,5457.079
5020.9504,5401.385
5021.5924,5310.122
5022.2344,5412.25
5022.8765,5384.562
5023.5185,5282.038
5024.1605,5429.665
5024.8025,5334.572
5025.4446,5409.632
5026.0866,5566.323
5026.7286,5569.321
5027.3707,5505.919
5028.0127,5412.288
5028.6547,5479.452
5029.2968,5572.973
5029.9388,5646.511
5030.5808,5880.745
5031.2229,6153.043
5031.8649,6274.054
5032.5069,6060.9
5033.149,6015.488
5033.791,5829.087
5034.433,6013.134
5035.0751,6042.943
5035.7171,5871.961
5036.3591,5488.851
5037.0012,5398.091
5037.6432,5273.676
5038.2852,5261.926
5038.9273,5222.392
5039.5693,5020.128
5040.2113,4905.102
5040.8533,4815.745
5041.4954,4789.04
5042.1374,4900.882
5042.7794,4965.719
5043.4215,5224.578
5044.0635,5517.823
5044.7055,5843.479
5045.3476,6011.353
5045.9896,5942.739
5046.6316,6174.877
5047.2737,5914.371
5047.9157,6154.182
5048.5577,5728.338
5049.1998,5603.179
5049.8418,5622.646
5050.4838,5697.04
5051.1259,5532.663
5051.7679,5589.097
5052.4099,5734.028
5053.052,5785.349
5053.694,5925.222
5054.336,5858.186
5054.9781,5947.242
5055.6201,6208.053
5056.2621,6274.777
5056.9041,6371.13
5057.5462,6302.502
5058.1882,6273.223
5058.8302,6305.116
5059.4723,6294.278
5060.1143,6331.749
5060.7563,6393.242
5061.3984,6374.917
5062.0404,6371.226
5062.6824,5941.024
5063.3245,6114.917
5063.9665,5998.644
5064.6085,5877.396
5065.2506,5693.131
5065.8926,5441.167
5066.5346,5515.03
5067.1767,5652.628
5067.8187,5794.787
5068.4607,5782.477
5069.1028,5707.383
5069.7448,5687.635
5070.3868,5731.842
5071.0289,5821.414
5071.6709,5752.079
5072.3129,5946.04
5072.9549,5921.908
5073.597,5857.652
5074.239,5872.583
5074.881,6039.647
5075.5231,5748.291
5076.1651,6018.56
5076.8071,5681.282
5077.4492,5571.559
5078.0912,5593.89
5078.7332,5575.338
5079.3753,5460.893
5080.0173,5363.886
5080.6593,5264.817
5081.3014,5232.514
5081.9434,5335.458
5082.5854,5498.3
5083.2275,5531.925
5083.8695,5583.042
5084.5115,5796.084
5085.1536,6007.52
5085.7956,6167.942
5086.4376,6226.481
5087.0797,6243.557
5087.7217,6164.123
5088.3637,6278.275
5089.0057,6115.423
5089.6478,6436.095
5090.2898,6132.875
5090.9318,6403.359
5091.5739,6226.661
5092.2159,6354.978
5092.8579,6550.73
5093.5,6338.966
5094.142,6560.613
5094.784,6471.083
5095.4261,6353.692
5096.0681,6275.446
5096.7101,6160.375
5097.3522,5941.552
5097.9942,5856.129
5098.6362,5839.098
5099.2783,5787.332
5099.9203,5843.051
5100.5623,5632.924
5101.2044,5739.738
5101.8464,5765.685
5102.4884,5925.163
5103.1305,6061.873
5103.7725,6193.43
5104.4145,6062.308
5105.0566,5934.063
5105.6986,5931.273
5106.3406,5778.106
5106.9826,6019.366
5107.6247,5676.966
5108.2667,5623.284
5108.9087,5641.952
5109.5508,5857.318
5110.1928,5981.585
5110.8348,6006.816
5111.4769,6050.74
5112.1189,6162.767
5112.7609,6230.079
5113.403,6256.243
5114.045,6402.512
5114.687,6438.318
5115.3291,6523.935
5115.9711,6728.605
5116.6131,6808.586
5117.2552,6560.609
5117.8972,6566.065
5118.5392,6612.074
5119.1813,6592.941
5119.8233,6461.188
5120.4653,6276.827
5121.1074,6232.841
5121.7494,5911.486
5122.3914,5987.64
5123.0334,5843.655
5123.6755,5894.235
5124.3175,5854.65
5124.9595,5623.289
5125.6016,5553.859
5126.2436,5669.047
5126.8856,5769.94
5127.5277,5695.659
5128.1697,5718.238
5128.8117,5956.12
5129.4538,5859.259
5130.0958,5767.556
5130.7378,5883.795
5131.3799,5994.979
5132.0219,5877.514
5132.6639,6248.43
5133.306,6214.821
5133.948,6233.212
5134.59,6485.86
5135.2321,6326.383
5135.8741,6259.017
5136.5161,6279.978
5137.1582,6394.279
5137.8002,6253.816
5138.4422,6081.054
5139.0842,6052.368
5139.7263,5853.234
5140.3683,5784.8
5141.0103,5898.844
5141.6524,5960.976
5142.2944,6074.924
5142.9364,6190.551
5143.5785,6080.417
5144.2205,5941.183
5144.8625,6092.804
5145.5046,6111.607
5146.1466,6194.902
5146.7886,6037.232
5147.4307,6044.922
5148.0727,5851.954
5148.7147,5813.292
5149.3568,6215.65
5149.9988,6001.222
5150.6408,6243.479
5151.2829,6073.004
5151.9249,6006.25
5152.5669,5796.29
5153.209,5893.38
5153.851,5759.041
5154.493,5937.211
5155.135,6143.634
5155.7771,6188.175
5156.4191,6423.802
5157.0611,6644.653
5157.7032,6703.601
5158.3452,6859.99
5158.9872,6984.708
5159.6293,6880.254
5160.2713,6864.435
5160.9133,6903.622
5161.5554,6970.955
5162.1974,6724.133
5162.8394,6444.249
5163.4815,6258.767
5164.1235,5778.765
5164.7655,5583.431
5165.4076,5460.949
5166.0496,5223.929
5166.6916,4918.583
5167.3337,4726.68
5167.9757,4569.022
5168.6177,4339.048
5169.2598,4303.506
5169.9018,4384.439
5170.5438,4521.263
5171.1859,4590.06
5171.8279,4608.496
5172.4699,4549.602
5173.1119,4429.071
5173.754,4487.397
5174.396,4653.58
5175.038,4977.337
5175.6801,5432.333
5176.3221,5835.35
5176.9641,6069.84
5177.6062,6067.9
5178.2482,5941.674
5178.8902,5756.078
5179.5323,5607.62
5180.1743,5386.242
5180.8163,4962.65
5181.4584,4727.975
5182.1004,4650.487
5182.7424,4447.009
5183.3845,4366.298
5184.0265,4458.146
5184.6685,4577.596
5185.3106,4737.471
5185.9526,5173.41
5186.5946,5717.519
5187.2367,6229.539
5187.8787,6510.351
5188.5207,6541.203
5189.1627,6669.803
5189.8048,6676.234
5190.4468,6570.511
5191.0888,6773.633
5191.7309,6607.058
5192.3729,6409.461
5193.0149,6263.726
5193.657,6079.995
5194.299,6163.79
5194.941,6570.293
5195.5831,6805.021
5196.2251,6898.454
5196.8671,6995.325
5197.5092,7033.186
5198.1512,7196.187
5198.7932,7460.46
5199.4353,7513.396
5200.0773,7515.057
5200.7193,7441.707
5201.3614,7358.824
5202.0034,7105.861
5202.6454,6802.738
5203.2875,6663.069
5203.9295,6449.164
5204.5715,6187.247
5205.2135,5794.334
5205.8556,5345.551
5206.4976,5172.347
5207.1396,5034.998
5207.7817,5023.009
5208.4237,5279.804
5209.0657,6024.603
5209.7078,5936.79
5210.3498,6171.924
5210.9918,6522.526
5211.6339,7129.345
5212.2759,7409.078
5212.9179,7570.928
5213.56,7808.167
5214.202,7945.066
5214.844,7942.499
5215.4861,7906.021
5216.1281,7849.356
5216.7701,7685.714
5217.4122,7732.901
5218.0542,8114.378
5218.6962,8334.727
5219.3383,8330.984
5219.9803,8465.061
5220.6223,8648.686
5221.2643,8637.852
5221.9064,8525.445
5222.5484,8439.016
5223.1904,8192.531
5223.8325,7607.942
5224.4745,7558.532
5225.1165,6872.869
5225.7586,7055.133
5226.4006,7021.403
5227.0426,6905.165
5227.6847,6870.092
5228.3267,7092.229
5228.9687,7227.364
5229.6108,7506.583
5230.2528,7849.027
5230.8948,7889.172
5231.5369,7926.265
5232.1789,8119.315
5232.8209,8135.774
5233.463,7868.464
5234.105,7942.281
5234.747,8202.209
5235.3891,8291.904
5236.0311,8590.864
5236.6731,8905.818
5237.3151,8956.428
5237.9572,9078.143
5238.5992,9267.922
5239.2412,9280.255
5239.8833,9240.285
5240.5253,8835.9
5241.1673,9121.33
5241.8094,9203.724
5242.4514,9175.451
5243.0934,9245.477
5243.7355,9129.859
5244.3775,8795.878
5245.0195,8965.965
5245.6616,8965.49
5246.3036,9023.616
5246.9456,8716.098
5247.5877,8413.67
5248.2297,8322.504
5248.8717,8178.149
5249.5138,8082.005
5250.1558,8333.53
5250.7978,8443.783
5251.4399,8227.441
5252.0819,8334.901
5252.7239,8506.449
5253.366,8454.066
5254.008,8532.668
5254.65,8845.335
5255.292,8831.453
5255.9341,8994.122
5256.5761,9200.326
5257.2181,9214.221
5257.8602,9348.248
5258.5022,9494.03
5259.1442,9423.645
5259.7863,9271.924
5260.4283,8737.347
5261.0703,8633.584
5261.7124,8027.565
5262.3544,7724.856
5262.9964,7353.19
5263.6385,6950.344
5264.2805,6768.385
5264.9225,6998.649
5265.5646,5550.942
5266.2066,5063.039
5266.8486,6394.807
5267.4907,6176.304
5268.1327,6279.399
5268.7747,6599.351
5269.4168,6682.296
5270.0588,6394.08
5270.7008,6366.814
5271.3428,6463.355
5271.9849,6847.453
5272.6269,7293.247
5273.2689,7781.996
5273.911,8200.023
5274.553,8404.162
5275.195,8656.15
5275.8371,8706.34
5276.4791,8924.821
5277.1211,9229.406
5277.7632,9231.534
5278.4052,9413.602
5279.0472,9454.586
5279.6893,9269.406
5280.3313,9073.547
5280.9733,8920.922
5281.6154,8772.226
5282.2574,8742.006
5282.8994,8740.445
5283.5415,8648.518
5284.1835,8650.117
5284.8255,8861.537
5285.4676,9112.479
5286.1096,9334.237
5286.7516,10021.15
5287.3936,10310.16
5288.0357,9964.653
5288.6777,10121.33
5289.3197,10105.63
5289.9618,10183.8
5290.6038,10205.49
5291.2458,10138.25
5291.8879,10178.52
5292.5299,10426.17
5293.1719,9998.433
5293.814,9887.561
5294.456,9576.514
5295.098,9198.121
5295.7401,8954.063
5296.3821,8872.166
5297.0241,8721.143
5297.6662,8437.573
5298.3082,8144.105
5298.9502,8022.822
5299.5923,8261.936
5300.2343,8633.852
5300.8763,8987.584
5301.5184,9309.928
5302.1604,9535.035
5302.8024,9517.095
5303.4444,9695.395
5304.0865,9916.16
5304.7285,10334.02
5305.3705,10208.92
5306.0126,10312.63
5306.6546,10323.67
5307.2966,10408.39
5307.9387,10210.2
5308.5807,10490.64
5309.2227,10310.17
5309.8648,10532.52
5310.5068,10572.92
5311.1488,10808.94
5311.7909,10690.87
5312.4329,10652.45
5313.0749,10510.61
5313.717,10462.74
5314.359,10467.35
5315.001,10493.58
5315.6431,10463.84
5316.2851,10346.32
5316.9271,10202.4
5317.5692,10139.78
5318.2112,10302.74
5318.8532,10363.34
5319.4952,10224.98
5320.1373,10209.01
5320.7793,10087.63
5321.4213,9558.658
5322.0634,9494.475
5322.7054,9632.588
5323.3474,9473.791
5323.9895,9624.237
5324.6315,9013.445
5325.2735,8282.911
5325.9156,8155.654
5326.5576,7858.569
5327.1996,8109.797
5327.8417,8193.65
5328.4837,7863.508
5329.1257,7565.788
5329.7678,7760.776
5330.4098,8226.783
5331.0518,9021.604
5331.6939,9571.852
5332.3359,9890.579
5332.9779,10117.19
5333.62,10224.11
5334.262,10388.71
5334.904,10438.15
5335.5461,10446.11
5336.1881,10583.77
5336.8301,10374.2
5337.4721,10076.25
5338.1142,10048.45
5338.7562,9707.766
5339.3982,9768.684
5340.0403,9656.357
5340.6823,9463.477
5341.3243,9437.736
5341.9664,9418.197
5342.6084,9294.434
5343.2504,9760.04
5343.8925,9941.152
5344.5345,10068.02
5345.1765,10004.5
5345.8186,9896.896
5346.4606,9712.703
5347.1026,9657.63
5347.7447,9625.735
5348.3867,9643.067
5349.0287,9774.925
5349.6708,9958.442
5350.3128,9901.131
5350.9548,9829.759
5351.5969,10155.7
5352.2389,10725.15
5352.8809,10979.11
5353.5229,10924.36
5354.165,11107.51
5354.807,11063.84
5355.449,11260.94
5356.0911,11240.69
5356.7331,11376.35
5357.3751,11447.16
5358.0172,11676.89
5358.6592,11374.09
5359.3012,11507.61
5359.9433,11231.67
5360.5853,11118.75
5361.2273,11322.72
5361.8694,10980.4
5362.5114,10812.73
5363.1534,10740.69
5363.7955,10656.02
5364.4375,10354.48
5365.0795,10397.16
5365.7216,10158.94
5366.3636,10008.4
5367.0056,9956.07
5367.6477,9743.066
5368.2897,9548.186
5368.9317,9398.374
5369.5737,9281.228
5370.2158,9126.687
5370.8578,8896.07
5371.4998,8895.459
5372.1419,8981.104
5372.7839,9032.307
5373.4259,9447.431
5374.068,9914.281
5374.71,10572.2
5375.352,10874.87
5375.9941,11259.92
5376.6361,11280.12
5377.2781,11165.89
5377.9202,10982.05
5378.5622,10893.58
5379.2042,11086.97
5379.8463,11007.11
5380.4883,11050.39
5381.1303,11136.53
5381.7724,10779.07
5382.4144,10869.45
5383.0564,10807.64
5383.6985,10810.34
5384.3405,10831.07
5384.9825,10980.37
5385.6245,11017.8
5386.2666,11217.09
5386.9086,11209.7
5387.5506,10963.8
5388.1927,11025.59
5388.8347,11033.79
5389.4767,10943.46
5390.1188,10760.65
5390.7608,10439.24
5391.4028,10327.12
5392.0449,10127.49
5392.6869,10152.28
5393.3289,10258.37
5393.971,9695.036
5394.613,9885.605
5395.255,9658.393
5395.8971,9839.58
5396.5391,9759.676
5397.1811,9839.533
5397.8232,9743.93
5398.4652,9590.012
5399.1072,9720.476
5399.7493,10087.54
5400.3913,10574.49
5401.0333,10573.2
5401.6753,10324.23
5402.3174,10156.98
5402.9594,10072.3
5403.6014,9898.691
5404.2435,9773.133
5404.8855,9539.379
5405.5275,9303.535
5406.1696,9155.701
5406.8116,9068.466
5407.4536,9170.898
5408.0957,9168.502
5408.7377,9762.238
5409.3797,10116.32
5410.0218,10295.5
5410.6638,9995.349
5411.3058,10157.75
5411.9479,10187.54
5412.5899,10666.02
5413.2319,10935.22
5413.874,10715.77
5414.516,10286.5
5415.158,10497.1
5415.8001,10330.3
5416.4421,10660.37
5417.0841,11457.36
5417.7262,11499.62
5418.3682,11611.4
5419.0102,11664.36
5419.6522,11522.0
5420.2943,11628.97
5420.9363,11493.07
5421.5783,11166.51
5422.2204,10981.68
5422.8624,11123.34
5423.5044,11272.6
5424.1465,11127.76
5424.7885,11111.15
5425.4305,11201.84
5426.0726,11038.16
5426.7146,10966.52
5427.3566,11013.92
5427.9987,11423.04
5428.6407,11173.08
5429.2827,10936.91
5429.9248,10577.77
5430.5668,10125.0
5431.2088,9934.519
5431.8509,9763.56
5432.4929,10097.74
5433.1349,10264.02
5433.777,10490.9
5434.419,10309.18
5435.061,10287.72
5435.703,10240.93
5436.3451,10503.39
5436.9871,10898.25
5437.6291,11408.51
5438.2712,11780.77
5438.9132,11771.01
5439.5552,11955.67
5440.1973,12069.97
5440.8393,12038.2
5441.4813,12096.97
5442.1234,12266.93
5442.7654,12061.87
5443.4074,11729.94
5444.0495,11477.15
5444.6915,11178.08
5445.3335,10857.87
5445.9756,10558.24
5446.6176,10467.22
5447.2596,10228.35
5447.9017,10195.6
5448.5437,10262.74
5449.1857,10703.85
5449.8278,11442.1
5450.4698,11615.11
5451.1118,11680.43
5451.7538,11268.16
5452.3959,11287.51
5453.0379,10815.68
5453.6799,10796.18
5454.322,10881.78
5454.964,10928.42
5455.606,10510.04
5456.2481,10655.94
5456.8901,10658.61
5457.5321,10840.92
5458.1742,11263.24
5458.8162,11457.76
5459.4582,11576.69
5460.1003,11489.23
5460.7423,11366.19
5461.3843,11353.62
5462.0264,11202.92
5462.6684,10948.92
5463.3104,10819.78
5463.9525,10762.37
5464.5945,10860.1
5465.2365,11139.95
5465.8786,11414.91
5466.5206,11670.05
5467.1626,11774.96
5467.8046,11751.06
5468.4467,11691.91
5469.0887,11887.3
5469.7307,11619.08
5470.3728,11659.55
5471.0148,11488.67
5471.6568,11431.35
5472.2989,11288.91
5472.9409,11242.47
5473.5829,11132.88
5474.225,10899.39
5474.867,10852.1
5475.509,10691.35
5476.1511,10648.86
5476.7931,10496.71
5477.4351,10644.18
5478.0772,10591.64
5478.7192,10574.51
5479.3612,10779.97
5480.0033,10974.1
5480.6453,10966.5
5481.2873,11136.49
5481.9294,11161.82
5482.5714,11116.75
5483.2134,11278.7
5483.8554,11509.71
5484.4975,11642.06
5485.1395,11719.28
5485.7815,11916.13
5486.4236,11985.31
5487.0656,11780.83
5487.7076,11503.23
5488.3497,11464.35
5488.9917,11473.09
5489.6337,11680.59
5490.2758,11650.42
5490.9178,11819.1
5491.5598,11824.95
5492.2019,11924.82
5492.8439,12179.61
5493.4859,12007.92
5494.128,11942.49
5494.77,11747.73
5495.412,11907.33
5496.0541,11818.09
5496.6961,11909.64
5497.3381,11762.19
5497.9802,11757.26
5498.6222,11625.96
5499.2642,11603.85
5499.9063,11653.78
5500.5483,11726.07
5501.1903,11861.18
5501.8323,11766.55
5502.4744,11673.71
5503.1164,11467.02
5503.7584,11280.04
5504.4005,11273.67
5505.0425,11313.91
5505.6845,11468.64
5506.3266,11584.37
5506.9686,11541.24
5507.6106,11653.64
5508.2527,11706.44
5508.8947,11619.02
5509.5367,11744.38
5510.1788,11736.95
5510.8208,11535.99
5511.4628,11359.59
5512.1049,11299.51
5512.7469,10986.97
5513.3889,10923.75
5514.031,10674.13
5514.673,10969.09
5515.315,10914.18
5515.9571,11431.43
5516.5991,11506.21
5517.2411,11748.71
5517.8831,12418.78
5518.5252,12449.15
5519.1672,12362.02
5519.8092,12494.86
5520.4513,12363.72
5521.0933,12375.82
5521.7353,12238.96
5522.3774,12640.42
5523.0194,12647.78
5523.6614,12514.17
5524.3035,12369.97
5524.9455,12177.17
5525.5875,11995.19
5526.2296,11709.03
5526.8716,11552.4
5527.5136,11513.58
5528.1557,11370.24
5528.7977,11424.85
5529.4397,11506.05
5530.0818,11409.82
5530.7238,11510.92
5531.3658,12080.6
5532.0079,12240.45
5532.6499,12028.88
5533.2919,11912.87
5533.9339,12075.84
5534.576,12004.31
5535.218,12303.71
5535.86,12130.73
5536.5021,12119.66
5537.1441,12206.01
5537.7861,12250.52
5538.4282,12172.3
5539.0702,12317.82
5539.7122,12379.28
5540.3543,12192.89
5540.9963,12384.17
5541.6383,12408.62
5542.2804,12486.86
5542.9224,12384.99
5543.5644,12428.86
5544.2065,12398.11
5544.8485,12453.47
5545.4905,12415.93
5546.1326,12417.8
5546.7746,12544.03
5547.4166,12583.83
5548.0587,12703.27
5548.7007,12589.74
5549.3427,12717.14
5549.9847,12967.22
5550.6268,12835.07
5551.2688,12890.83
5551.9108,12820.54
5552.5529,12724.22
5553.1949,12776.26
5553.8369,12679.45
5554.479,12437.07
5555.121,12226.52
5555.763,12254.27
5556.4051,12522.42
5557.0471,12503.48
5557.6891,12532.21
5558.3312,12650.59
5558.9732,12146.39
5559.6152,12271.7
5560.2573,12364.43
5560.8993,12509.02
5561.5413,12370.55
5562.1834,12036.2
5562.8254,12162.9
5563.4674,11772.94
5564.1095,11906.67
5564.7515,11846.33
5565.3935,11772.11
5566.0355,11818.46
5566.6776,11775.61
5567.3196,11677.18
5567.9616,11802.58
5568.6037,11849.89
5569.2457,11714.16
5569.8877,11557.04
5570.5298,11352.58
5571.1718,11505.22
5571.8138,11765.42
5572.4559,11775.38
5573.0979,11764.78
5573.7399,11689.21
5574.382,11747.0
5575.024,12194.0
5575.666,12391.27
5576.3081,12311.01
5576.9501,12419.5
5577.5921,12405.47
5578.2342,12413.54
5578.8762,12512.96
5579.5182,12558.11
5580.1603,12431.05
5580.8023,12600.26
5581.4443,12545.72
5582.0864,12561.41
5582.7284,12115.77
5583.3704,12012.54
5584.0124,12130.66
5584.6545,11764.15
5585.2965,11608.66
5585.9385,11246.56
5586.5806,10791.9
5587.2226,10462.75
5587.8646,10647.97
5588.5067,10369.82
5589.1487,10647.13
5589.7907,10793.96
5590.4328,10950.19
5591.0748,11065.81
5591.7168,11367.69
5592.3589,11591.5
5593.0009,11719.81
5593.6429,11761.56
5594.285,11817.8
5594.927,11847.6
5595.569,11803.3
5596.2111,11737.48
5596.8531,11695.35
5597.4951,11895.93
5598.1372,12031.19
5598.7792,11535.02
5599.4212,11350.11
5600.0632,11392.7
5600.7053,11193.81
5601.3473,11274.25
5601.9893,11411.01
5602.6314,11365.57
5603.2734,11446.5
5603.9154,11671.54
5604.5575,11821.91
5605.1995,11975.75
5605.8415,12614.0
5606.4836,12856.25
5607.1256,13017.23
5607.7676,13232.63
5608.4097,13190.86
5609.0517,13144.76
5609.6937,13231.56
5610.3358,13141.7
5610.9778,12927.35
5611.6198,12987.2
5612.2619,12564.02
5612.9039,12287.4
5613.5459,11917.01
5614.188,12034.25
5614.83,11712.88
5615.472,11681.74
5616.114,11272.31
5616.7561,11000.53
5617.3981,11259.51
5618.0401,11717.81
5618.6822,12059.64
5619.3242,12179.66
5619.9662,12294.15
5620.6083,12562.84
5621.2503,12488.83
5621.8923,12210.8
5622.5344,12295.54
5623.1764,12208.23
5623.8184,12087.17
5624.4605,12228.82
5625.1025,11974.63
5625.7445,11761.67
5626.3866,11831.46
5627.0286,12104.74
5627.6706,12371.12
5628.3127,12755.32
5628.9547,12752.53
5629.5967,12798.18
5630.2388,13027.52
5630.8808,13010.41
5631.5228,12957.42
5632.1648,13084.96
5632.8069,13125.17
5633.4489,12821.67
5634.0909,12579.98
5634.733,12753.13
5675.181,13023.49
5675.823,13007.79
5676.4651,12874.25
5677.1071,12822.39
5677.7491,12936.26
5678.3912,13093.04
5679.0332,13109.76
5679.6752,12806.68
5680.3173,12569.25
5680.9593,12508.35
5681.6013,12446.15
5682.2433,12322.58
5682.8854,12419.29
5683.5274,12299.27
5684.1694,11988.34
5684.8115,12165.37
5685.4535,12192.98
5686.0955,12314.79
5686.7376,12325.56
5687.3796,12107.48
5688.0216,12149.4
5688.6637,12060.24
5689.3057,12069.0
5689.9477,12237.58
5690.5898,12334.72
5691.2318,12427.05
5691.8738,13272.59
5692.5159,13050.29
5693.1579,12752.23
5693.7999,12702.3
5694.442,12754.62
5695.084,13096.08
5695.726,13049.0
5696.3681,12956.78
5697.0101,12941.81
5697.6521,12999.7
5698.2941,12694.85
5698.9362,12504.08
5699.5782,12311.24
5700.2202,12131.31
5700.8623,12347.95
5701.5043,12259.07
5702.1463,12152.25
5702.7884,12132.63
5703.4304,12185.12
5704.0724,12065.03
5704.7145,12085.03
5705.3565,12156.62
5705.9985,11956.12
5706.6406,11929.03
5707.2826,11937.76
5707.9246,11686.35
5708.5667,11450.75
5709.2087,11498.19
5709.8507,11493.63
5710.4928,11337.57
5711.1348,11646.43
5711.7768,11923.59
5712.4189,12007.53
5713.0609,11953.11
5713.7029,12020.61
5714.3449,12379.73
5714.987,12663.23
5715.629,12600.87
5716.271,12729.29
5716.9131,12999.03
5717.5551,13049.38
5718.1971,13095.15
5718.8392,13073.77
5719.4812,13152.6
5720.1232,13198.58
5720.7653,13083.36
5721.4073,12971.45
5722.0493,13189.93
5722.6914,13239.6
5723.3334,13146.19
5723.9754,12838.13
5724.6175,12939.18
5725.2595,13323.81
5725.9015,13104.3
5726.5436,13224.52
5727.1856,13158.86
5727.8276,13041.07
5728.4697,12692.06
5729.1117,12468.82
5729.7537,12732.03
5730.3957,13181.94
5731.0378,13119.56
5731.6798,12720.28
5732.3218,12793.73
5732.9639,12814.51
5733.6059,12815.14
5734.2479,13063.0
5734.89,13326.55
5735.532,13304.02
5736.174,13186.28
5736.8161,13055.55
5737.4581,13001.92
5738.1001,13045.81
5738.7422,13137.69
5739.3842,13112.31
5740.0262,13152.53
5740.6683,13260.79
5741.3103,13327.37
5741.9523,13219.89
5742.5944,13101.95
5743.2364,13220.71
5743.8784,13200.47
5744.5205,13379.89
5745.1625,13221.93
5745.8045,13238.87
5746.4466,13604.26
5747.0886,13527.4
5747.7306,13131.18
5748.3726,13078.04
5749.0147,13239.64
5749.6567,13284.42
5750.2987,12966.67
5750.9408,12882.82
5751.5828,12992.49
5752.2248,12791.62
5752.8669,12823.37
5753.5089,12937.1
5754.1509,12678.63
5754.793,12563.89
5755.435,12644.54
5756.077,12809.38
5756.7191,12862.68
5757.3611,13029.35
5758.0031,13087.06
5758.6452,13333.78
5759.2872,13103.62
5759.9292,12870.35
5760.5713,13046.41
5761.2133,12815.27
5761.8553,12715.61
5762.4974,12884.83
5763.1394,12685.84
5763.7814,12684.99
5764.4234,12932.1
5765.0655,12820.06
5765.7075,13341.17
5766.3495,13455.21
5766.9916,13618.98
5767.6336,13560.13
5768.2756,13610.1
5768.9177,13576.24
5769.5597,13470.36
5770.2017,13099.44
5770.8438,13154.3
5771.4858,13216.59
5772.1278,13181.95
5772.7699,13080.34
5773.4119,12930.83
5774.0539,12956.39
5774.696,12926.62
5775.338,12916.91
5775.98,13097.81
5776.6221,13171.43
5777.2641,13126.96
5777.9061,13004.92
5778.5482,12795.88
5779.1902,12847.57
5779.8322,12761.78
5780.4742,12507.75
5781.1163,12423.56
5781.7583,12278.2
5782.4003,11811.12
5783.0424,11629.57
5783.6844,11550.61
5784.3264,11745.04
5784.9685,11672.57
5785.6105,11688.12
5786.2525,12090.44
5786.8946,12113.69
5787.5366,12633.7
5788.1786,12560.68
5788.8207,12434.73
5789.4627,12682.1
5790.1047,12533.77
5790.7468,12647.0
5791.3888,12968.7
5792.0308,12800.17
5792.6729,12940.91
5793.3149,13051.38
5793.9569,13028.74
5794.599,13338.03
5795.241,13263.94
5795.883,13199.08
5796.525,13542.12
5797.1671,13451.75
5797.8091,13291.95
5798.4511,13420.95
5799.0932,13191.5
5799.7352,13297.22
5800.3772,13429.33
5801.0193,13289.61
5801.6613,13617.07
5802.3033,13363.02
5802.9454,13354.97
5803.5874,13358.37
5804.2294,13370.59
5804.8715,13297.91
5805.5135,13024.77
5806.1555,13114.34
5806.7976,13139.24
5807.4396,12877.91
5808.0816,13072.21
5808.7237,13186.21
5809.3657,13419.53
5810.0077,13508.32
5810.6498,13215.17
5811.2918,13126.77
5811.9338,13344.98
5812.5759,13423.81
5813.2179,13200.95
5813.8599,13112.85
5814.5019,13117.94
5815.144,13031.31
5815.786,13135.2
5816.428,13121.35
5817.0701,13074.37
5817.7121,13249.61
5818.3541,13433.15
5818.9962,13533.14
5819.6382,13511.73
5820.2802,13634.64
5820.9223,13525.69
5821.5643,13658.36
5822.2063,13430.1
5822.8484,13282.09
5823.4904,13468.95
5824.1324,13428.23
5824.7745,13507.1
5825.4165,13598.32
5826.0585,13548.13
5826.7006,13618.65
5827.3426,13217.99
5827.9846,13389.36
5828.6267,13711.6
5829.2687,13303.48
5829.9107,13583.46
5830.5527,13524.06
5831.1948,13380.76
5831.8368,13559.12
5832.4788,13486.76
5833.1209,13676.79
5833.7629,13358.12
5834.4049,13599.22
5835.047,13634.33
5835.689,13394.22
5836.331,13571.67
5836.9731,13459.34
5837.6151,13351.28
5838.2571,13742.69
5838.8992,13357.97
5839.5412,13443.57
5840.1832,13555.81
5840.8253,13602.33
5841.4673,13806.75
5842.1093,13923.36
5842.7514,13544.02
5843.3934,13871.11
5844.0354,13663.36
5844.6775,13334.44
5845.3195,13506.59
5845.9615,13783.35
5846.6035,13263.67
5847.2456,13221.79
5847.8876,13230.54
5848.5296,13311.03
5849.1717,13090.57
5849.8137,13170.21
5850.4557,13210.74
5851.0978,13053.35
5851.7398,13225.67
5852.3818,13058.31
5853.0239,13117.24
5853.6659,12974.53
5854.3079,12743.45
5854.95,12556.11
5855.592,12351.26
5856.234,12232.92
5856.8761,12230.11
5857.5181,12352.36
5858.1601,12331.44
5858.8022,12116.76
5859.4442,11963.73
5860.0862,12127.09
5860.7283,12505.55
5861.3703,12796.44
5862.0123,12797.7
5862.6543,12889.51
5863.2964,12993.37
5863.9384,12863.93
5864.5804,12648.8
5865.2225,12582.45
5865.8645,12702.34
5866.5065,12689.29
5867.1486,12658.28
5867.7906,12697.38
5868.4326,12684.18
5869.0747,12954.04
5869.7167,13208.8
5870.3587,13142.59
5871.0008,13156.52
5871.6428,13229.44
5872.2848,13131.14
5872.9269,13202.15
5873.5689,13279.28
5874.2109,13150.45
5874.853,13086.09
5875.495,13177.02
5876.137,13170.06
5876.7791,12882.42
5877.4211,12798.94
5878.0631,12686.88
5878.7051,12768.39
5879.3472,13011.99
5879.9892,12815.17
5880.6312,12445.1
5881.2733,12048.84
5881.9153,11877.64
5882.5573,11841.57
5883.1994,12081.76
5883.8414,11783.78
5884.4834,11664.3
5885.1255,11288.86
5885.7675,10953.38
5886.4095,10154.33
5887.0516,9868.072
5887.6936,8850.08
5888.3356,8543.306
5888.9777,8068.771
5889.6197,7623.973
5890.2617,7085.068
5890.9038,6994.237
5891.5458,7267.037
5892.1878,7527.849
5892.8299,7575.626
5893.4719,7538.097
5894.1139,8164.743
5894.756,8200.856
5895.398,8231.736
5896.04,8164.301
5896.682,8087.028
5897.3241,8025.173
5897.9661,8640.643
5898.6081,9587.852
5899.2502,10153.54
5899.8922,10649.54
5900.5342,11132.22
5901.1763,11419.3
5901.8183,11701.34
5902.4603,11878.74
5903.1024,11957.66
5903.7444,12135.01
5904.3864,12160.31
5905.0285,12210.03
5905.6705,12414.61
5906.3125,12413.71
5906.9546,12329.9
5907.5966,12469.65
5908.2386,12652.37
5908.8807,12532.47
5909.5227,12533.51
5910.1647,12759.32
5910.8068,12758.35
5911.4488,12704.1
5912.0908,12510.88
5912.7328,12523.82
5913.3749,12443.71
5914.0169,12205.98
5914.6589,12085.05
5915.301,12242.72
5915.943,12392.9
5916.585,12310.31
5917.2271,12350.48
5917.8691,12641.99
5918.5111,12734.7
5919.1532,12817.94
5919.7952,12706.93
5920.4372,12649.15
5921.0793,12852.04
5921.7213,12840.06
5922.3633,12864.32
5923.0054,13040.49
5923.6474,13081.34
5924.2894,13146.29
5924.9315,13223.12
5925.5735,13008.19
5926.2155,13007.02
5926.8576,13022.83
5927.4996,12840.34
5928.1416,12726.98
5928.7836,12634.54
5929.4257,12766.16
5930.0677,12870.9
5930.7097,12796.8
5931.3518,12743.75
5931.9938,12816.06
5932.6358,12782.22
5933.2779,12831.88
5933.9199,12995.96
5934.5619,12846.54
5935.204,13037.72
5935.846,13056.37
5936.488,13000.59
5937.1301,13080.53
5937.7721,13196.36
5938.4141,13203.53
5939.0562,12986.48
5939.6982,13230.74
5940.3402,12971.3
5940.9823,13115.5
5941.6243,13027.2
5942.2663,12808.81
5942.9084,12890.51
5943.5504,12885.73
5944.1924,13088.68
5944.8344,13294.04
5945.4765,13094.64
5946.1185,13085.54
5946.7605,12839.89
5947.4026,12961.68
5948.0446,12925.84
5948.6866,13119.88
5949.3287,12981.87
5949.9707,12889.3
5950.6127,12895.16
5951.2548,12877.56
5951.8968,12955.16
5952.5388,12942.84
5953.1809,13122.78
5953.8229,12616.69
5954.4649,12408.22
5955.107,12661.74
5955.749,12887.34
5956.391,13057.75
5957.0331,13053.98
5957.6751,12886.34
5958.3171,12656.74
5958.9592,12912.83
5959.6012,13125.34
5960.2432,13153.38
5960.8852,13187.3
5961.5273,13645.82
5962.1693,13473.96
5962.8113,13265.56
5963.4534,13642.59
5964.0954,13065.63
5964.7374,13265.5
5965.3795,13169.16
5966.0215,13338.11
5966.6635,12999.66
5967.3056,13007.57
5967.9476,13228.68
5968.5896,13280.05
5969.2317,13501.18
5969.8737,13421.87
5970.5157,13566.77
5971.1578,13715.22
5971.7998,13317.99
5972.4418,13370.74
5973.0839,13478.11
5973.7259,13134.91
5974.3679,13359.5
5975.01,13057.49
5975.652,13006.85
5976.294,13023.45
5976.9361,12720.96
5977.5781,12731.25
5978.2201,12751.2
5978.8621,13138.58
5979.5042,12889.0
5980.1462,12927.16
5980.7882,13168.31
5981.4303,12717.18
5982.0723,13046.8
5982.7143,13021.86
5983.3564,12610.74
5983.9984,12762.52
5984.6404,12738.81
5985.2825,12559.22
5985.9245,12783.16
5986.5665,12655.88
5987.2086,12993.01
5987.8506,13149.44
5988.4926,13275.71
5989.1347,13142.87
5989.7767,13265.96
5990.4187,13449.37
5991.0608,13271.35
5991.7028,13282.82
5992.3448,13340.64
5992.9869,13639.61
5993.6289,13416.7
5994.2709,13389.96
5994.9129,13589.02
5995.555,13381.12
5996.197,13135.48
5996.839,13332.33
5997.4811,12961.89
5998.1231,13066.48
5998.7651,13294.61
5999.4072,13041.48
6000.0492,12825.27
6000.6912,12777.56
6001.3333,12795.49
6001.9753,13164.17
6002.6173,13124.0
6003.2594,12861.09
6003.9014,13012.5
6004.5434,12918.66
6005.1855,13032.23
6005.8275,12790.37
6006.4695,12519.52
6007.1116,12720.69
6007.7536,12731.9
6008.3956,12794.01
6009.0377,12530.64
6009.6797,12645.31
6010.3217,12801.7
6010.9637,13025.57
6011.6058,13015.79
6012.2478,13059.08
6012.8898,12979.96
6013.5319,12924.83
6014.1739,12760.01
6014.8159,12797.68
6015.458,12702.95
6016.1,12862.92
6016.742,12762.0
6017.3841,12971.23
6018.0261,12721.74
6018.6681,12648.89
6019.3102,12646.09
6019.9522,12782.1
6020.5942,12691.22
6021.2363,12443.4
6021.8783,12395.73
6022.5203,12520.11
6023.1624,12725.69
6023.8044,12814.86
6024.4464,13129.86
6025.0885,13040.98
6025.7305,13217.74
6026.3725,13220.83
6027.0145,13469.28
6027.6566,13591.47
6028.2986,13501.21
6028.9406,13513.58
6029.5827,13608.91
6030.2247,13680.28
6030.8667,13774.91
6031.5088,13798.09
6032.1508,13691.36
6032.7928,13809.83
6033.4349,13865.25
6034.0769,13706.74
6034.7189,13673.65
6035.361,13703.88
6036.003,13745.79
6036.645,13614.76
6037.2871,13651.85
6037.9291,13567.35
6038.5711,13675.76
6039.2132,13358.05
6039.8552,13372.96
6040.4972,13625.12
6041.1393,13551.25
6041.7813,13464.37
6042.4233,13669.6
6043.0653,13656.17
6043.7074,13841.55
6044.3494,13913.1
6044.9914,14036.01
6045.6335,13743.64
6046.2755,13973.66
6046.9175,14077.32
6047.5596,13794.25
6048.2016,14014.02
6048.8436,13997.41
6049.4857,14001.4
6050.1277,14169.38
6050.7697,14118.97
6051.4118,13847.89
6052.0538,13656.93
6052.6958,13634.48
6053.3379,13835.07
6053.9799,13714.5
6054.6219,13689.2
6055.264,13586.86
6055.906,13413.26
6056.548,13479.71
6057.1901,13601.13
6057.8321,13478.38
6058.4741,13312.77
6059.1162,13599.6
6059.7582,13752.01
6060.4002,13668.84
6061.0422,13753.34
6061.6843,13826.72
6062.3263,13692.46
6062.9683,13282.08
6063.6104,13016.62
6064.2524,13051.93
6064.8944,13230.13
6065.5365,12971.44
6066.1785,13087.6
6066.8205,13262.02
6067.4626,13433.38
6068.1046,13694.95
6068.7466,13839.31
6069.3887,13939.27
6070.0307,14187.0
6070.6727,14218.02
6071.3148,14200.46
6071.9568,14186.3
6072.5988,14242.07
6073.2409,13904.68
6073.8829,13955.22
6074.5249,13996.78
6075.167,13886.57
6075.809,13901.62
6076.451,13936.04
6077.093,13843.95
6077.7351,13812.11
6078.3771,13553.78
6079.0191,13539.71
6079.6612,13229.71
6080.3032,13296.38
6080.9452,13143.91
6081.5873,13119.4
6082.2293,13242.72
6082.8713,13223.96
6083.5134,13229.51
6084.1554,13390.4
6084.7974,13343.11
6085.4395,13315.09
6086.0815,13553.42
6086.7235,13552.11
6087.3656,13440.72
6088.0076,13379.09
6088.6496,13463.26
6089.2917,13325.27
6089.9337,13275.67
6090.5757,13412.96
6091.2178,13550.38
6091.8598,13464.78
6092.5018,13560.36
6093.1438,13323.39
6093.7859,13394.07
6094.4279,13529.69
6095.0699,13725.0
6095.712,13701.51
6096.354,13585.46
6096.996,13803.92
6097.6381,13804.11
6098.2801,13640.11
6098.9221,13687.45
6099.5642,13394.18
6100.2062,13104.05
6100.8482,12919.57
6101.4903,12911.99
6102.1323,12799.07
6102.7743,12474.07
6103.4164,12358.63
6104.0584,12307.73
6104.7004,12337.33
6105.3425,12536.18
6105.9845,13364.94
6106.6265,13288.93
6107.2686,13677.74
6107.9106,13793.71
6108.5526,13640.64
6109.1946,13467.36
6109.8367,13774.97
6110.4787,13792.61
6111.1207,13748.9
6111.7628,13872.34
6112.4048,13797.79
6113.0468,13809.76
6113.6889,13778.2
6114.3309,13842.72
6114.9729,13691.47
6115.615,14123.81
6116.257,13886.22
6116.899,13461.11
6117.5411,13587.76
6118.1831,13480.41
6118.8251,13205.44
6119.4672,13007.73
6120.1092,12637.44
6120.7512,12213.96
6121.3933,12075.73
6122.0353,11978.52
6122.6773,12148.06
6123.3194,11690.16
6123.9614,11985.91
6124.6034,12427.34
6125.2454,12982.57
6125.8875,12916.49
6126.5295,13330.03
6127.1715,13633.77
6127.8136,13267.51
6128.4556,13505.75
6129.0976,13873.3
6129.7397,13656.78
6130.3817,13981.59
6131.0237,13888.18
6131.6658,13938.38
6132.3078,14043.83
6132.9498,13924.26
6133.5919,13204.26
6134.2339,13062.99
6134.8759,12850.19
6135.518,12803.97
6136.16,12553.82
6136.802,12122.46
6137.4441,12088.21
6138.0861,12377.5
6138.7281,12244.31
6139.3702,12599.19
6140.0122,13141.63
6140.6542,13239.13
6141.2963,13545.14
6141.9383,13958.32
6142.5803,13899.38
6143.2223,13747.01
6143.8644,13694.69
6144.5064,13700.01
6145.1484,13909.16
6145.7905,14055.11
6146.4325,14039.14
6147.0745,13891.36
6147.7166,13672.48
6148.3586,13845.46
6149.0006,13595.31
6149.6427,13621.52
6150.2847,13256.49
6150.9267,13604.86
6151.5688,13711.61
6152.2108,13401.06
6152.8528,13189.96
6153.4949,13344.55
6154.1369,13284.62
6154.7789,13449.27
6155.421,13534.02
6156.063,13326.48
6156.705,13326.0
6157.3471,13175.27
6157.9891,13054.2
6158.6311,12669.32
6159.2731,12195.68
6159.9152,11644.87
6160.5572,11526.59
6161.1992,11156.99
6161.8413,10765.31
6162.4833,10363.66
6163.1253,10363.23
6163.7674,10484.35
6164.4094,10760.29
6165.0514,11207.79
6165.6935,11858.87
6166.3355,12133.0
6166.9775,12101.56
6167.6196,12034.42
6168.2616,12067.17
6168.9036,12096.73
6169.5457,12145.73
6170.1877,12012.75
6170.8297,12049.73
6171.4718,12071.75
6172.1138,12377.29
6172.7558,12723.38
6173.3979,12867.26
6174.0399,13080.99
6174.6819,13059.79
6175.3239,13149.63
6175.966,13426.18
6176.608,13458.96
6177.25,13393.33
6177.8921,13294.14
6178.5341,13227.43
6179.1761,13290.51
6179.8182,13354.63
6180.4602,13317.13
6181.1022,13400.71
6181.7443,13655.47
6182.3863,13790.66
6183.0283,13641.35
6183.6704,13424.88
6184.3124,13368.67
6184.9544,13232.5
6185.5965,13258.54
6186.2385,13092.61
6186.8805,13072.48
6187.5226,12992.13
6188.1646,12864.9
6188.8066,12503.87
6189.4487,12533.77
6190.0907,12434.82
6190.7327,12471.49
6191.3747,12451.81
6192.0168,12413.01
6192.6588,12400.38
6193.3008,12666.62
6193.9429,12789.11
6194.5849,13004.38
6195.2269,13323.51
6195.869,13358.1
6196.511,13385.96
6197.153,13286.48
6197.7951,13390.77
6198.4371,13299.95
6199.0791,13133.66
6199.7212,13094.45
6200.3632,13069.09
6201.0052,13107.99
6201.6473,13204.95
6202.2893,13252.16
6202.9313,13362.54
6203.5734,13513.46
6204.2154,13735.46
6204.8574,13745.1
6205.4995,13510.82
6206.1415,13785.19
6206.7835,13639.77
6207.4255,13713.33
6208.0676,13566.13
6208.7096,13837.23
6209.3516,13550.74
6209.9937,13572.33
6210.6357,13206.79
6211.2777,12851.89
6211.9198,12908.33
6212.5618,12899.87
6213.2038,12687.73
6213.8459,12547.02
6214.4879,12359.62
6215.1299,12526.45
6215.772,12367.3
6216.414,12406.1
6217.056,12279.23
6217.6981,12026.38
6218.3401,12524.23
6218.9821,12508.49
6219.6242,12759.07
6220.2662,12593.74
6220.9082,12837.72
6221.5503,12501.79
6222.1923,12662.47
6222.8343,12971.02
6223.4764,12983.61
6224.1184,13131.96
6224.7604,12922.1
6225.4024,12904.78
6226.0445,12644.67
6226.6865,12598.35
6227.3285,12818.69
6227.9706,12533.89
6228.6126,12144.86
6229.2546,12091.05
6229.8967,12149.98
6230.5387,12106.91
6231.1807,12095.59
6231.8228,12048.06
6232.4648,12070.75
6233.1068,12258.16
6233.7489,12490.16
6234.3909,12799.7
6235.0329,12992.91
6235.675,13199.46
6236.317,13206.24
6236.959,13107.62
6237.6011,12976.76
6238.2431,12868.38
6238.8851,12878.31
6239.5272,12942.97
6240.1692,12537.64
6240.8112,12406.29
6241.4532,12307.75
6242.0953,12225.81
6242.7373,12420.16
6243.3793,12402.71
6244.0214,11948.23
6244.6634,11928.7
6245.3054,12299.71
6245.9475,12576.2
6246.5895,12866.8
6247.2315,12757.42
6247.8736,12697.9
6248.5156,13047.51
6249.1576,12749.69
6249.7997,12840.5
6250.4417,12749.21
6251.0837,12785.19
6251.7258,12894.08
6252.3678,12471.91
6253.0098,12248.47
6253.6519,12227.54
6254.2939,11949.27
6254.9359,12040.06
6255.578,11937.34
6256.22,11875.53
6256.862,11900.98
6257.504,12044.83
6258.1461,12001.14
6258.7881,11916.38
6259.4301,12149.92
6260.0722,12269.02
6260.7142,11878.19
6261.3562,12557.47
6261.9983,12681.12
6262.6403,12823.29
6263.2823,12897.3
6263.9244,13138.03
6264.5664,13147.07
6265.2084,13259.04
6265.8505,12948.79
6266.4925,12983.12
6267.1345,12836.44
6267.7766,12890.47
6268.4186,13196.1
6269.0606,13289.52
6269.7027,13148.36
6270.3447,13111.88
6270.9867,13214.12
6271.6288,13294.13
6272.2708,13026.9
6272.9128,13264.63
6273.5548,13476.56
6274.1969,13105.52
6274.8389,12929.45
6275.4809,12896.7
6276.123,13054.06
6276.765,12931.93
6277.407,12656.69
6278.0491,12656.13
6278.6911,12465.46
6279.3331,12416.65
6279.9752,12558.06
6280.6172,12861.48
6281.2592,12854.37
6281.9013,12687.98
6282.5433,12976.74
6283.1853,13083.91
6283.8274,13079.42
6284.4694,13244.54
6285.1114,13310.95
6285.7535,13309.19
6286.3955,13536.19
6287.0375,13640.95
6287.6796,13639.91
6288.3216,13600.18
6288.9636,13545.22
6289.6056,13451.67
6290.2477,13304.32
6290.8897,13435.55
6291.5317,13364.4
6292.1738,13317.59
6292.8158,13145.82
6293.4578,13031.48
6294.0999,13137.09
6294.7419,12838.8
6295.3839,12778.64
6296.026,12989.23
6296.668,13050.66
6297.31,13026.67
6297.9521,13102.04
6298.5941,12761.84
6299.2361,13161.19
6299.8782,12650.51
6300.5202,12708.58
6301.1622,12928.1
6301.8043,12763.43
6302.4463,12834.16
6303.0883,12583.56
6303.7304,12702.15
6304.3724,12587.93
6305.0144,13113.02
6305.6565,13424.06
6306.2985,13481.67
6306.9405,13450.78
6307.5825,13622.07
6308.2246,13735.17
6308.8666,13711.13
6309.5086,13809.95
6310.1507,13691.53
6310.7927,13692.3
6311.4347,13721.76
6312.0768,13268.08
6312.7188,13467.51
6313.3608,13295.67
6314.0029,13387.8
6314.6449,13255.36
6365.3654,13570.11
6366.0075,13959.44
6366.6495,13986.5
6367.2915,14135.98
6367.9336,14385.87
6368.5756,14214.13
6369.2176,14330.63
6369.8597,14166.26
6370.5017,14221.56
6371.1437,14217.53
6371.7857,14479.49
6372.4278,14277.14
6373.0698,14454.85
6373.7118,14558.69
6374.3539,14649.98
6374.9959,14517.57
6375.6379,14353.07
6376.28,14550.04
6376.922,14165.32
6377.564,14040.51
6378.2061,14178.29
6378.8481,14069.7
6379.4901,13907.88
6380.1322,13888.48
6380.7742,13838.02
6381.4162,13807.83
6382.0583,13952.92
6382.7003,13984.5
6383.3423,14015.88
6383.9844,14011.59
6384.6264,14056.04
6385.2684,14216.18
6385.9105,14184.58
6386.5525,14147.29
6387.1945,14285.83
6387.8366,14301.93
6388.4786,14344.84
6389.1206,14239.89
6389.7626,14055.69
6390.4047,13778.46
6391.0467,13631.42
6391.6887,13927.85
6392.3308,13971.34
6392.9728,13923.11
6393.6148,13467.99
6394.2569,13816.78
6394.8989,13574.53
6395.5409,13633.2
6396.183,13734.68
6396.825,13975.09
6397.467,13603.02
6398.1091,13752.26
6398.7511,13810.25
6399.3931,13805.17
6400.0352,13709.05
6400.6772,13523.92
6401.3192,13454.47
6401.9613,13505.19
6402.6033,13910.43
6403.2453,14287.15
6403.8874,14403.66
6404.5294,14372.57
6405.1714,14353.35
6405.8134,14362.02
6406.4555,14199.18
6407.0975,14097.36
6407.7395,14052.93
6408.3816,13805.75
6409.0236,13712.27
6409.6656,13906.15
6410.3077,13934.98
6410.9497,14053.94
6411.5917,14287.09
6412.2338,14046.09
6412.8758,14001.33
6413.5178,14029.42
6414.1599,14042.94
6414.8019,14172.33
6415.4439,14346.61
6416.086,14408.76
6416.728,14343.32
6417.37,14171.7
6418.0121,14422.24
6418.6541,13979.25
6419.2961,14034.43
6419.9382,13788.48
6420.5802,13825.59
6421.2222,14260.8
6421.8642,14315.65
6422.5063,14203.29
6423.1483,14167.92
6423.7903,14461.04
6424.4324,14418.66
6425.0744,14632.32
6425.7164,14734.53
6426.3585,14760.97
6427.0005,14781.49
6427.6425,14565.61
6428.2846,14536.16
6428.9266,14436.38
6429.5686,14264.38
6430.2107,14170.35
6430.8527,14173.6
6431.4947,14206.17
6432.1368,14114.02
6432.7788,14121.15
6433.4208,14303.84
6434.0629,14416.17
6434.7049,14672.2
6435.3469,14716.35
6435.989,14267.56
6436.631,14114.14
6437.273,14119.67
6437.915,14032.08
6438.5571,14004.84
6439.1991,13851.13
6439.8411,13768.5
6440.4832,13781.63
6441.1252,13788.68
6441.7672,13891.04
6442.4093,14542.33
6443.0513,14659.03
6443.6933,14919.51
6444.3354,14923.72
6444.9774,15083.93
6445.6194,14895.4
6446.2615,14781.45
6446.9035,14795.29
6447.5455,14668.44
6448.1876,14547.76
6448.8296,14225.96
6449.4716,13948.75
6450.1137,13648.23
6450.7557,13625.17
6451.3977,13766.98
6452.0398,13965.48
6452.6818,14157.75
6453.3238,14386.49
6453.9659,14622.77
6454.6079,14733.91
6455.2499,14797.13
6455.8919,14754.92
6456.534,14728.14
6457.176,14610.2
6457.818,14902.15
6458.4601,14843.07
6459.1021,14606.69
6459.7441,14446.97
6460.3862,14328.64
6461.0282,14026.62
6461.6702,14113.63
6462.3123,13826.12
6462.9543,13927.08
6463.5963,13578.95
6464.2384,13482.76
6464.8804,14221.08
6465.5224,14132.09
6466.1645,14495.72
6466.8065,14548.33
6467.4485,14820.85
6468.0906,14825.54
6468.7326,14817.01
6469.3746,14715.74
6470.0167,14643.26
6470.6587,14601.34
6471.3007,14599.29
6471.9427,14715.78
6472.5848,14556.3
6473.2268,14501.97
6473.8688,14557.14
6474.5109,14870.13
6475.1529,15034.22
6475.7949,14902.63
6476.437,14864.52
6477.079,14966.71
6477.721,14983.46
6478.3631,14885.81
6479.0051,14863.17
6479.6471,15029.56
6480.2892,14816.22
6480.9312,14571.07
6481.5732,14474.96
6482.2153,14640.25
6482.8573,14721.49
6483.4993,14724.74
6484.1414,14743.6
6484.7834,14862.61
6485.4254,14789.01
6486.0675,15041.14
6486.7095,15253.24
6487.3515,15221.22
6487.9935,15278.54
6488.6356,14891.69
6489.2776,14978.8
6489.9196,14963.69
6490.5617,14768.65
6491.2037,14357.74
6491.8457,14064.38
6492.4878,13661.23
6493.1298,13474.43
6493.7718,13215.84
6494.4139,12994.36
6495.0559,12782.1
6495.6979,12467.34
6496.34,12411.95
6496.982,12504.53
6497.624,12982.52
6498.2661,13353.96
6498.9081,13542.51
6499.5501,13672.41
6500.1922,13860.44
6500.8342,14059.41
6501.4762,14201.44
6502.1183,14252.74
6502.7603,14692.34
6503.4023,14653.88
6504.0443,14899.06
6504.6864,14921.96
6505.3284,14920.38
6505.9704,15106.84
6506.6125,15161.59
6507.2545,15132.13
6507.8965,15136.83
6508.5386,15227.07
6509.1806,15018.28
6509.8226,15048.87
6510.4647,14777.18
6511.1067,14971.09
6511.7487,15063.74
6512.3908,15217.71
6513.0328,15004.87
6513.6748,14931.26
6514.3169,15019.96
6514.9589,14871.25
6515.6009,14809.26
6516.243,14908.81
6516.885,14790.52
6517.527,14635.39
6518.1691,14760.67
6518.8111,14844.36
6519.4531,14876.88
6520.0951,14942.89
6520.7372,14710.08
6521.3792,14992.66
6522.0212,15286.38
6522.6633,15149.56
6523.3053,15186.47
6523.9473,15226.77
6524.5894,14956.37
6525.2314,15166.82
6525.8734,15265.27
6526.5155,15485.16
6527.1575,15302.8
6527.7995,15496.11
6528.4416,15336.06
6529.0836,15143.51
6529.7256,15109.43
6530.3677,15112.67
6531.0097,15246.69
6531.6517,15207.53
6532.2938,15027.98
6532.9358,14893.4
6533.5778,14730.15
6534.2199,14895.73
6534.8619,14886.98
6535.5039,15119.1
6536.146,15302.23
6536.788,15408.95
6537.43,15433.48
6538.072,15397.33
6538.7141,15358.27
6539.3561,15224.86
6539.9981,15266.95
6540.6402,15190.67
6541.2822,15459.65
6541.9242,15183.54
6542.5663,15373.63
6543.2083,14945.94
6543.8503,14838.31
6544.4924,14847.58
6545.1344,14728.08
6545.7764,14701.98
6546.4185,14643.49
6547.0605,14581.09
6547.7025,14723.25
6548.3446,14895.06
6548.9866,14593.31
6549.6286,14767.53
6550.2707,15013.3
6550.9127,14906.31
6551.5547,14824.19
6552.1968,14799.03
6552.8388,14660.5
6553.4808,14712.55
6554.1228,14591.97
6554.7649,14597.66
6555.4069,14263.85
6556.0489,14349.27
6556.691,14478.32
6557.333,14331.69
6557.975,14417.84
6558.6171,14773.41
6559.2591,15058.62
6559.9011,15330.28
6560.5432,15456.22
6561.1852,15542.78
6561.8272,15619.29
6562.4693,15533.23
6563.1113,15563.13
6563.7533,15873.25
6564.3954,15844.05
6565.0374,15740.38
6565.6794,15526.57
6566.3215,15377.41
6566.9635,15106.81
6567.6055,14985.46
6568.2476,15070.67
6568.8896,14847.23
6569.5316,14588.59
6570.1736,14293.97
6570.8157,14217.56
6571.4577,14076.01
6572.0997,14065.7
6572.7418,14024.25
6573.3838,14298.72
6574.0258,14312.89
6574.6679,14248.12
6575.3099,14266.37
6575.9519,14559.27
6576.594,14655.28
6577.236,14542.01
6577.878,14623.75
6578.5201,14777.31
6579.1621,14972.22
6579.8041,14875.83
6580.4462,15052.06
6581.0882,15020.88
6581.7302,15039.86
6582.3723,14923.9
6583.0143,14847.54
6583.6563,14806.33
6584.2984,14812.48
6584.9404,14849.63
6585.5824,15012.17
6586.2244,14869.69
6586.8665,14920.92
6587.5085,14958.63
6588.1505,15265.42
6588.7926,15037.35
6589.4346,14895.34
6590.0766,14699.32
6590.7187,14358.57
6591.3607,14399.55
6592.0027,14475.58
6592.6448,14355.51
6593.2868,14131.12
6593.9288,14169.93
6594.5709,14073.54
6595.2129,13934.4
6595.8549,14102.57
6596.497,14349.72
6597.139,14609.34
6597.781,14865.1
6598.4231,14855.11
6599.0651,14757.13
6599.7071,14707.1
6600.3492,14768.81
6600.9912,14851.91
6601.6332,14667.11
6602.2752,14706.29
6602.9173,14775.23
6603.5593,14927.23
6604.2013,15089.55
6604.8434,14672.58
6605.4854,14732.08
6606.1274,14679.3
6606.7695,14541.79
6607.4115,14569.22
6608.0535,14447.64
6608.6956,14454.05
6609.3376,14515.82
6609.9796,14474.3
6610.6217,14627.91
6611.2637,14763.28
6611.9057,14750.65
6612.5478,14846.81
6613.1898,14915.05
6613.8318,14899.21
6614.4739,14910.49
6615.1159,14843.56
6615.7579,14826.31
6616.4,14852.78
6617.042,15070.08
6617.684,15153.65
6618.3261,15098.47
6618.9681,15000.79
6619.6101,14948.07
6620.2521,14721.87
6620.8942,15049.78
6621.5362,14908.49
6622.1782,14823.21
6622.8203,15051.0
6623.4623,14845.88
6624.1043,14764.2
6624.7464,14700.77
6625.3884,14693.87
6626.0304,14419.12
6626.6725,14491.57
6627.3145,14632.62
6627.9565,14611.97
6628.5986,14649.74
6629.2406,14680.31
6629.8826,14502.53
6630.5247,14350.3
6631.1667,14353.55
6631.8087,14307.97
6632.4508,14308.18
6633.0928,14120.92
6633.7348,14447.94
6634.3769,14156.16
6635.0189,14146.88
6635.6609,14156.61
6636.3029,14376.59
6636.945,14422.29
6637.587,14536.48
6638.229,14606.27
6638.8711,14893.31
6639.5131,14855.78
6640.1551,14590.8
6640.7972,14355.69
6641.4392,14241.43
6642.0812,14339.58
6642.7233,14498.54
6643.3653,14388.57
6644.0073,14183.05
6644.6494,14078.04
6645.2914,14247.4
6645.9334,14510.16
6646.5755,14393.36
6647.2175,14668.96
6647.8595,14873.51
6648.5016,14734.61
6649.1436,14691.36
6649.7856,14382.38
6650.4277,14883.72
6651.0697,14806.02
6651.7117,14561.24
6652.3537,14507.32
6652.9958,14567.36
6653.6378,14739.44
6654.2798,14540.2
6654.9219,14533.51
6655.5639,14558.82
6656.2059,14682.3
6656.848,14501.07
6657.49,14356.38
6658.132,14233.25
6658.7741,14293.72
6659.4161,14307.57
6660.0581,14203.12
6660.7002,14094.68
6661.3422,13905.55
6661.9842,13875.01
6662.6263,14062.25
6663.2683,14118.56
6663.9103,13547.59
6664.5524,13830.71
6665.1944,13802.31
6665.8364,13834.52
6666.4785,14133.01
6667.1205,14018.94
6667.7625,14205.33
6668.4045,14426.92
6669.0466,14540.53
6669.6886,14307.86
6670.3306,14318.66
6670.9727,14456.16
6671.6147,14542.81
6672.2567,14598.7
6672.8988,14648.18
6673.5408,14470.03
6674.1828,14460.09
6674.8249,14529.3
6675.4669,13990.57
6676.1089,14100.01
6676.751,13983.34
6677.393,13987.19
6678.035,13954.62
6678.6771,13695.58
6679.3191,13767.44
6679.9611,13973.77
6680.6032,13888.67
6681.2452,14049.28
6681.8872,14299.41
6682.5293,14503.24
6683.1713,14380.12
6683.8133,14242.09
6684.4553,14106.65
6685.0974,14252.4
6685.7394,14330.5
6686.3814,14151.07
6687.0235,14130.3
6687.6655,14036.59
6688.3075,13986.99
6688.9496,14151.76
6689.5916,14298.25
6690.2336,14202.3
6690.8757,14220.37
6691.5177,13900.43
6692.1597,14168.63
6692.8018,14037.81
6693.4438,14069.83
6694.0858,14084.68
6694.7279,13920.04
6695.3699,14035.46
6696.0119,13940.47
6696.654,13985.71
6697.296,13967.19
6697.938,13793.46
6698.5801,13829.66
6699.2221,13841.87
6699.8641,13868.65
6700.5062,14007.43
6701.1482,14044.93
6701.7902,14157.29
6702.4322,13772.04
6703.0743,13754.98
6703.7163,14063.71
6704.3583,14199.85
6705.0004,14076.38
6705.6424,13835.81
6706.2844,13808.47
6706.9265,13893.92
6707.5685,13937.62
6708.2105,14070.61
6708.8526,14243.22
6709.4946,14204.66
6710.1366,13901.49
6710.7787,13779.85
6711.4207,13962.79
6712.0627,14067.64
6712.7048,13718.82
6713.3468,13754.23
6713.9888,13497.05
6714.6309,13472.69
6715.2729,13214.57
6715.9149,13349.73
6716.557,13312.1
6717.199,13092.08
6717.841,13132.7
6718.483,13005.6
6719.1251,13165.18
6719.7671,13247.34
6720.4091,13360.25
6721.0512,13321.82
6721.6932,13419.96
6722.3352,13628.11
6722.9773,13658.52
6723.6193,13731.73
6724.2613,13563.64
6724.9034,13727.36
6725.5454,13664.34
6726.1874,13905.25
6726.8295,13774.08
6727.4715,13628.02
6728.1135,13566.09
6728.7556,13437.08
6729.3976,13379.28
6730.0396,13665.79
6730.6817,13689.85
6731.3237,13763.07
6731.9657,13886.08
6732.6078,13701.0
6733.2498,13546.87
6733.8918,13565.3
6734.5338,13522.6
6735.1759,13657.89
6735.8179,13646.72
6736.4599,13524.01
6737.102,13575.76
6737.744,13811.5
6738.386,13608.98
6739.0281,13439.44
6739.6701,13553.59
6740.3121,13466.68
6740.9542,13517.59
6741.5962,13430.56
6742.2382,13434.49
6742.8803,13462.04
6743.5223,13177.29
6744.1643,13175.9
6744.8064,13305.63
6745.4484,13270.57
6746.0904,13278.46
6746.7325,13282.73
6747.3745,13151.78
6748.0165,13331.41
6748.6586,13416.6
6749.3006,13389.4
6749.9426,13091.78
6750.5846,13191.05
6751.2267,13272.74
6751.8687,13381.15
6752.5107,13007.48
6753.1528,13115.16
6753.7948,13246.82
6754.4368,13253.23
6755.0789,13374.26
6755.7209,13479.84
6756.3629,13408.36
6757.005,13614.84
6757.647,13710.6
6758.289,13650.94
6758.9311,13872.11
6759.5731,13896.5
6760.2151,13719.4
6760.8572,13500.7
6761.4992,13536.43
6762.1412,13641.04
6762.7833,13636.02
6763.4253,13737.11
6764.0673,13447.76
6764.7094,13309.25
6765.3514,13207.37
6765.9934,13180.66
6766.6354,13153.16
6767.2775,13235.37
6767.9195,13311.71
6768.5615,13194.45
6769.2036,13207.67
6769.8456,13224.77
6770.4876,13153.03
6771.1297,13301.46
6771.7717,13374.77
6772.4137,13168.9
6773.0558,13365.23
6773.6978,13444.06
6774.3398,13567.45
6774.9819,13609.04
6775.6239,13454.97
6776.2659,13590.42
6776.908,13500.33
6777.55,13590.74
6778.192,13670.87
6778.8341,13569.18
6779.4761,13542.37
6780.1181,13595.14
6780.7602,13313.27
6781.4022,13100.36
6782.0442,13005.01
6782.6863,12905.49
6783.3283,13202.88
6783.9703,13081.83
6784.6123,13069.39
6785.2544,12812.02
6785.8964,12621.87
6786.5384,12868.82
6787.1805,12935.62
6787.8225,12943.23
6788.4645,13017.03
6789.1066,13102.65
6789.7486,13208.16
6790.3906,13176.12
6791.0327,13301.85
6791.6747,13264.69
6792.3167,13245.98
6792.9588,13110.03
6793.6008,13206.37
6794.2428,13133.03
6794.8849,13064.19
6795.5269,12881.0
6796.1689,13100.78
6796.811,12965.09
6797.453,13223.17
6798.095,13220.17
6798.7371,12979.77
6799.3791,13030.17
6800.0211,13259.29
6800.6631,13263.48
6801.3052,12998.89
6801.9472,13045.73
6802.5892,13162.91
6803.2313,13201.57
6803.8733,13060.39
6804.5153,13034.63
6805.1574,13171.78
6805.7994,12885.02
6806.4414,12833.37
6807.0835,12784.89
6807.7255,12903.91
6808.3675,12815.33
6809.0096,13044.01
6809.6516,12903.11
6810.2936,12788.07
6810.9357,12939.42
6811.5777,12914.43
6812.2197,12851.41
6812.8618,12772.2
6813.5038,12940.41
6814.1458,12986.28
6814.7879,13103.42
6815.4299,12882.97
6816.0719,12951.54
6816.7139,12889.29
6817.356,12962.74
6817.998,12952.02
6818.64,12985.01
6819.2821,12904.22
6819.9241,12847.25
6820.5661,12736.04
6821.2082,12612.68
6821.8502,12678.92
6822.4922,12805.77
6823.1343,12897.04
6823.7763,13090.89
6824.4183,13159.74
6825.0604,13028.17
6825.7024,12941.37
6826.3444,12842.37
6826.9865,13254.62
6827.6285,13061.27
6828.2705,12899.32
6828.9126,12865.42
6829.5546,12773.39
6830.1966,12775.63
6830.8387,12698.22
6831.4807,12826.08
6832.1227,13069.64
6832.7647,12822.65
6833.4068,12799.63
6834.0488,13026.4
6834.6908,12951.87
6835.3329,12719.98
6835.9749,12983.97
6836.6169,12696.71
6837.259,12815.65
6837.901,12687.23
6838.543,12790.89
6839.1851,12611.08
6839.8271,12562.97
6840.4691,12622.7
6841.1112,12172.91
6841.7532,12291.82
6842.3952,12397.88
6843.0373,12228.39
6843.6793,12239.8
6844.3213,12374.01
6844.9634,12485.77
6845.6054,12751.63
6846.2474,12805.84
6846.8895,12813.82
6847.5315,12765.99
6848.1735,12808.89
6848.8155,12766.7
6849.4576,12924.49
6850.0996,12807.71
6850.7416,12819.38
6851.3837,12776.98
6852.0257,12542.63
6852.6677,12664.28
6853.3098,12403.8
6853.9518,12356.01
6854.5938,12548.82
6855.2359,12507.98
6855.8779,12170.87
6856.5199,11929.05
6857.162,12164.0
6857.804,12219.27
6858.446,12245.29
6859.0881,11937.18
6859.7301,12102.79
6860.3721,12260.43
6861.0142,12357.11
6861.6562,12189.56
6862.2982,12180.72
6862.9403,12025.89
6863.5823,12089.05
6864.2243,11914.98
6864.8664,11702.64
6865.5084,11450.21
6866.1504,11139.43
6866.7924,10397.18
6867.4345,10263.54
6868.0765,9623.326
6868.7185,8955.67
6869.3606,8367.945
6870.0026,8152.555
6870.6446,8285.294
6871.2867,8555.157
6871.9287,8722.148
6872.5707,8758.727
6873.2128,8841.613
6873.8548,9077.527
6874.4968,9314.338
6875.1389,9609.941
6875.7809,10042.29
6876.4229,10124.91
6877.065,9984.96
6877.707,10304.78
6878.349,10681.3
6878.9911,10840.11
6879.6331,11090.87
6880.2751,11336.6
6880.9172,11229.54
6881.5592,11242.61
6882.2012,11540.03
6882.8432,11397.24
6883.4853,11206.58
6884.1273,11111.18
6884.7693,10919.01
6885.4114,10842.28
6886.0534,10773.0
6886.6954,10938.15
6887.3375,10795.77
6887.9795,10623.27
6888.6215,10784.52
6889.2636,10869.77
6889.9056,10823.57
6890.5476,10734.94
6891.1897,10775.23
6891.8317,10912.69
6892.4737,10996.6
6893.1158,10866.07
6893.7578,10770.95
6894.3998,10680.46
6895.0419,11009.24
6895.6839,10924.35
6896.3259,11245.26
6896.968,11029.44
6897.61,10954.65
6898.252,10676.07
6898.894,10828.76
6899.5361,11244.47
6900.1781,11389.72
6900.8201,11130.88
6901.4622,10916.91
6902.1042,10804.16
6902.7462,11001.9
6903.3883,11216.1
6904.0303,11712.09
6904.6723,12603.6
6905.3144,12038.16
6905.9564,11432.33
6906.5984,11163.25
6907.2405,11330.17
6907.8825,11603.34
6908.5245,11599.07
6909.1666,11806.35
6909.8086,11816.92
6910.4506,11444.79
6911.0927,11460.7
6911.7347,11532.5
6912.3767,11795.86
6913.0188,11829.34
6913.6608,11504.73
6914.3028,11558.53
6914.9448,11367.38
6915.5869,11437.58
6916.2289,11456.22
6916.8709,11492.43
6917.513,11651.78
6918.155,11722.33
6918.797,11877.15
6919.4391,11836.23
6920.0811,11767.18
6920.7231,11723.92
6921.3652,11540.72
6922.0072,11731.33
6922.6492,11755.55
6923.2913,11910.46
6923.9333,12010.06
6924.5753,11925.66
6925.2174,11897.66
6925.8594,11713.0
6926.5014,11754.05
6927.1435,11795.32
6927.7855,11987.57
6928.4275,12219.07
6929.0696,12256.75
6929.7116,12303.66
6930.3536,12376.27
6930.9956,11950.13
6931.6377,12106.58
6932.2797,12306.92
6932.9217,12234.03
6933.5638,12415.79
6934.2058,12208.34
6934.8478,12145.53
6935.4899,12068.46
6936.1319,12090.5
6936.7739,12329.13
6937.416,12321.23
6938.058,12133.98
6938.7,12136.67
6939.3421,12154.07
6939.9841,12130.86
6940.6261,12357.94
6941.2682,12177.55
6941.9102,12297.64
6942.5522,12229.07
6943.1943,12191.04
6943.8363,12233.01
6944.4783,12394.97
6945.1204,12404.03
6945.7624,12261.34
