wavelength,flux
4989.1136,2876.097
4989.7557,2876.121
4990.3979,2876.147
4991.04,2878.901
4991.6822,3102.233
4992.3243,2943.497
4992.9665,2985.693
4993.6086,2851.594
4994.2507,2976.958
4994.8929,3044.707
4995.535,3267.108
4996.1772,3308.024
4996.8193,2992.896
4997.4615,2826.603
4998.1036,2960.317
4998.7458,3065.954
4999.3879,3018.109
5000.0301,3024.966
5000.6722,3021.854
5001.3144,2998.387
5001.9565,2922.425
5002.5987,2791.55
5003.2408,2768.154
5003.883,3008.817
5004.5251,2607.327
5005.1672,2604.153
5005.8094,2804.896
5006.4515,2911.646
5007.0937,2732.496
5007.7358,2670.288
5008.378,2701.236
5009.0201,2659.93
5009.6623,2757.07
5010.3044,2970.676
5010.9466,2921.651
5011.5887,2918.131
5012.2309,3003.977
5012.873,2807.017
5013.5152,2872.613
5014.1573,2859.554
5014.7995,2907.579
5015.4416,2575.313
5016.0838,2628.089
5016.7259,2662.177
5017.368,2478.22
5018.0102,2825.775
5018.6523,2774.957
5019.2945,2879.035
5019.9366,2870.853
5020.5788,3028.381
5021.2209,2875.182
5021.8631,2774.973
5022.5052,2967.52
5023.1474,2977.288
5023.7895,3008.986
5024.4317,3081.274
5025.0738,2934.382
5025.716,2872.615
5026.3581,2959.876
5027.0003,3057.249
5027.6424,3191.099
5028.2846,2888.366
5028.9267,3091.257
5029.5688,3009.092
5030.211,3065.297
5030.8531,3090.875
5031.4953,3064.596
5032.1374,3320.272
5032.7796,3190.265
5033.4217,3271.926
5034.0639,3429.616
5034.706,3393.646
5035.3482,3197.723
5035.9903,3356.76
5036.6325,3274.787
5037.2746,3122.894
5037.9168,3020.654
5038.5589,2795.939
5039.2011,2719.33
5039.8432,2797.467
5040.4853,2744.454
5041.1275,2806.664
5041.7696,2665.415
5042.4118,2560.071
5043.0539,2655.216
5043.6961,2789.026
5044.3382,2659.438
5044.9804,2848.397
5045.6225,3110.043
5046.2647,3364.085
5046.9068,3247.527
5047.549,3451.338
5048.1911,3211.136
5048.8333,3380.893
5049.4754,3306.06
5050.1176,3195.385
5050.7597,3129.747
5051.4019,2777.011
5052.044,2843.581
5052.6861,2869.802
5053.3283,2879.066
5053.9704,3085.843
5054.6126,3126.85
5055.2547,3345.954
5055.8969,3541.723
5056.539,3354.824
5057.1812,3324.274
5057.8233,3372.726
5058.4655,3386.488
5059.1076,3283.373
5059.7498,3450.974
5060.3919,3351.982
5061.0341,3574.2
5061.6762,3541.422
5062.3184,3684.561
5062.9605,3350.298
5063.6027,3412.603
5064.2448,3334.199
5064.8869,3277.632
5065.5291,3168.405
5066.1712,2908.691
5066.8134,2995.424
5067.4555,3058.439
5068.0977,2961.211
5068.7398,3105.842
5069.382,3250.605
5070.0241,3178.149
5070.6663,3173.186
5071.3084,3126.528
5071.9506,3033.35
5072.5927,3192.348
5073.2349,3338.291
5073.877,3107.204
5074.5192,3083.348
5075.1613,3138.713
5075.8034,3071.18
5076.4456,3244.534
5077.0877,3188.673
5077.7299,3088.754
5078.372,3208.869
5079.0142,3213.423
5079.6563,3143.668
5080.2985,3032.776
5080.9406,2944.485
5081.5828,2927.13
5082.2249,2835.674
5082.8671,2774.269
5083.5092,2881.844
5084.1514,2996.316
5084.7935,3174.583
5085.4357,3061.503
5086.0778,3105.225
5086.72,3278.015
5087.3621,3097.664
5088.0042,3280.264
5088.6464,3310.158
5089.2885,3473.689
5089.9307,3423.601
5090.5728,3406.062
5091.215,3484.512
5091.8571,3384.154
5092.4993,3372.606
5093.1414,3458.347
5093.7836,3525.89
5094.4257,3508.792
5095.0679,3550.204
5095.71,3534.158
5096.3522,3455.755
5096.9943,3362.409
5097.6365,3230.702
5098.2786,3136.2
5098.9207,3132.978
5099.5629,3242.737
5100.205,3297.557
5100.8472,3422.681
5101.4893,3248.6
5102.1315,3146.539
5102.7736,3201.86
5103.4158,3331.511
5104.0579,3408.523
5104.7001,3316.609
5105.3422,3346.302
5105.9844,3434.285
5106.6265,3363.931
5107.2687,3137.082
5107.9108,3304.157
5108.553,3360.19
5109.1951,3240.675
5109.8373,3100.419
5110.4794,3043.179
5111.1215,3174.626
5111.7637,3171.218
5112.4058,3141.052
5113.048,3307.287
5113.6901,3376.489
5114.3323,3479.919
5114.9744,3443.956
5115.6166,3334.121
5116.2587,3449.993
5116.9009,3486.274
5117.543,3572.788
5118.1852,3629.635
5118.8273,3816.28
5119.4695,3365.63
5120.1116,3569.107
5120.7538,3755.33
5121.3959,3546.335
5122.0381,3549.775
5122.6802,3384.577
5123.3223,3270.579
5123.9645,3245.704
5124.6066,3274.218
5125.2488,3188.113
5125.8909,3097.256
5126.5331,3073.615
5127.1752,3014.307
5127.8174,3078.333
5128.4595,3219.093
5129.1017,3255.589
5129.7438,3148.967
5130.386,3128.724
5131.0281,3023.594
5131.6703,3198.373
5132.3124,3157.551
5132.9546,3282.401
5133.5967,3461.552
5134.2388,3474.049
5134.881,3494.15
5135.5231,3681.967
5136.1653,3630.611
5136.8074,3477.908
5137.4496,3397.179
5138.0917,3487.744
5138.7339,3428.972
5139.376,3219.986
5140.0182,3378.574
5140.6603,3414.899
5141.3025,3185.244
5141.9446,3166.793
5142.5868,3289.128
5143.2289,3384.51
5143.8711,3404.443
5144.5132,3277.878
5145.1554,3324.402
5145.7975,3215.606
5146.4396,3224.82
5147.0818,3288.127
5147.7239,3108.741
5148.3661,3130.902
5149.0082,3129.814
5149.6504,3106.169
5150.2925,3191.843
5150.9347,3261.843
5151.5768,3352.586
5152.219,3323.94
5152.8611,3247.631
5153.5033,3287.175
5154.1454,3163.994
5154.7876,3048.93
5155.4297,3154.718
5156.0719,3302.889
5156.714,3346.188
5157.3561,3396.546
5157.9983,3576.499
5158.6404,3792.216
5159.2826,3858.059
5159.9247,3773.286
5160.5669,4100.187
5161.209,4034.466
5161.8512,3871.954
5162.4933,3953.248
5163.1355,3558.499
5163.7776,3509.88
5164.4198,3636.663
5165.0619,3288.176
5165.7041,3060.798
5166.3462,3114.622
5166.9884,3086.152
5167.6305,2772.038
5168.2727,2536.498
5168.9148,2516.318
5169.5569,2506.268
5170.1991,2388.75
5170.8412,2326.755
5171.4834,2457.317
5172.1255,2648.125
5172.7677,2669.205
5173.4098,2617.27
5174.052,2505.873
5174.6941,2294.398
5175.3363,2397.189
5175.9784,2506.96
5176.6206,2655.314
5177.2627,3018.075
5177.9049,3184.228
5178.547,3256.582
5179.1892,3230.339
5179.8313,3199.165
5180.4735,3093.43
5181.1156,2935.985
5181.7577,2903.196
5182.3999,2963.468
5183.042,2709.319
5183.6842,2449.883
5184.3263,2325.912
5184.9685,2375.479
5185.6106,2418.472
5186.2528,2480.741
5186.8949,2595.097
5187.5371,2800.023
5188.1792,3091.332
5188.8214,3397.816
5189.4635,3640.659
5190.1057,3496.749
5190.7478,3637.726
5191.39,3770.072
5192.0321,3579.433
5192.6742,3543.2
5193.3164,3485.423
5193.9585,3221.775
5194.6007,3356.646
5195.2428,3076.25
5195.885,3343.506
5196.5271,3802.283
5197.1693,3791.215
5197.8114,3958.497
5198.4536,3947.151
5199.0957,3904.071
5199.7379,4032.121
5200.38,3902.034
5201.0222,3885.977
5201.6643,4155.76
5202.3065,4126.14
5202.9486,3900.875
5203.5908,3800.855
5204.2329,3695.594
5204.875,3663.482
5205.5172,3411.199
5206.1593,3163.116
5206.8015,2942.726
5207.4436,2995.086
5208.0858,2976.432
5208.7279,2807.907
5209.3701,2792.679
5210.0122,2838.088
5210.6544,3098.254
5211.2965,3063.119
5211.9387,3528.505
5212.5808,3738.336
5213.223,3862.026
5213.8651,3843.141
5214.5073,4263.889
5215.1494,4498.332
5215.7915,4409.49
5216.4337,4284.898
5217.0758,4304.382
5217.718,4195.35
5218.3601,3971.95
5219.0023,4160.954
5219.6444,4407.409
5220.2866,4349.8
5220.9287,4541.128
5221.5709,4703.781
5222.213,4727.321
5222.8552,4483.574
5223.4973,4625.721
5224.1395,4564.968
5224.7816,4345.612
5225.4238,4189.825
5226.0659,4069.433
5226.7081,3949.491
5227.3502,3789.999
5227.9923,3684.636
5228.6345,3663.786
5229.2766,3688.977
5229.9188,3903.155
5230.5609,4052.702
5231.2031,4411.16
5231.8452,4570.372
5232.4874,4468.319
5233.1295,4481.663
5233.7717,4452.066
5234.4138,4388.826
5235.056,4339.695
5235.6981,4333.634
5236.3403,4567.179
5236.9824,4679.591
5237.6246,4741.678
5238.2667,4957.235
5238.9089,5108.848
5239.551,5035.221
5240.1931,4879.645
5240.8353,5127.424
5241.4774,4993.705
5242.1196,4845.631
5242.7617,4947.657
5243.4039,4780.054
5244.046,4794.12
5244.6882,4929.72
5245.3303,4937.026
5245.9725,4853.936
5246.6146,4867.327
5247.2568,5087.405
5247.8989,4888.519
5248.5411,4582.598
5249.1832,4437.287
5249.8254,4328.492
5250.4675,4406.437
5251.1096,4631.363
5251.7518,4686.274
5252.3939,4479.547
5253.0361,4278.095
5253.6782,4371.344
5254.3204,4755.528
5254.9625,4780.729
5255.6047,4819.373
5256.2468,4748.614
5256.889,4737.814
5257.5311,4954.776
5258.1733,5026.631
5258.8154,5049.474
5259.4576,5171.202
5260.0997,5134.603
5260.7419,5070.722
5261.384,4799.191
5262.0262,4842.696
5262.6683,4581.031
5263.3104,4315.697
5263.9526,4131.369
5264.5947,3863.179
5265.2369,3691.129
5265.879,3682.674
5266.5212,3693.597
5267.1633,2965.272
5267.8055,2686.25
5268.4476,3505.219
5269.0898,3336.22
5269.7319,3660.924
5270.3741,3789.073
5271.0162,3583.604
5271.6584,3442.55
5272.3005,3419.491
5272.9427,3700.464
5273.5848,3871.614
5274.227,4054.165
5274.8691,4461.13
5275.5112,4460.752
5276.1534,4682.794
5276.7955,4748.262
5277.4377,4753.561
5278.0798,4783.236
5278.722,4817.607
5279.3641,5013.156
5280.0063,5194.375
5280.6484,5254.558
5281.2906,5154.363
5281.9327,5001.711
5282.5749,4858.487
5283.217,4657.081
5283.8592,4498.323
5284.5013,4575.567
5285.1435,4751.307
5285.7856,4729.261
5286.4277,4696.579
5287.0699,5015.633
5287.712,5201.418
5288.3542,5477.09
5288.9963,5596.339
5289.6385,5501.257
5290.2806,5547.336
5290.9228,5201.171
5291.5649,5597.175
5292.2071,5546.41
5292.8492,5447.649
5293.4914,5395.753
5294.1335,5576.378
5294.7757,5273.059
5295.4178,5310.219
5296.06,5257.138
5296.7021,5220.769
5297.3443,5030.386
5297.9864,4767.533
5298.6285,4470.971
5299.2707,4296.72
5299.9128,4237.265
5300.555,4375.954
5301.1971,4653.471
5301.8393,4797.596
5302.4814,4940.145
5303.1236,5120.025
5303.7657,5309.129
5304.4079,5365.373
5305.05,5473.566
5305.6922,5518.178
5306.3343,5591.676
5306.9765,5520.351
5307.6186,5418.801
5308.2608,5513.158
5308.9029,5427.104
5309.545,5317.242
5310.1872,5489.79
5310.8293,5607.604
5311.4715,5973.461
5312.1136,5728.213
5312.7558,5470.643
5313.3979,5633.871
5314.0401,5841.538
5314.6822,5695.473
5315.3244,5645.444
5315.9665,5541.642
5316.6087,5550.987
5317.2508,5780.269
5317.893,5681.713
5318.5351,5554.481
5319.1773,5686.617
5319.8194,5812.483
5320.4616,5761.888
5321.1037,5556.889
5321.7458,5418.701
5322.388,5407.617
5323.0301,5492.21
5323.6723,5025.499
5324.3144,5343.625
5324.9566,5036.375
5325.5987,4903.951
5326.2409,4714.887
5326.883,4486.841
5327.5252,4315.236
5328.1673,4434.209
5328.8095,4387.937
5329.4516,4171.283
5330.0938,4008.496
5330.7359,4049.5
5331.3781,4086.199
5332.0202,4526.466
5332.6624,4947.276
5333.3045,5202.935
5333.9466,5449.632
5334.5888,5424.126
5335.2309,5294.957
5335.8731,5490.987
5336.5152,5744.53
5337.1574,5827.557
5337.7995,5702.839
5338.4417,5525.804
5339.0838,5425.672
5339.726,5457.834
5340.3681,5445.463
5341.0103,5160.309
5341.6524,5074.103
5342.2946,5052.703
5342.9367,4896.103
5343.5789,4661.595
5344.221,5225.417
5344.8631,5584.21
5345.5053,5478.84
5346.1474,5539.62
5346.7896,5550.057
5347.4317,5434.673
5348.0739,5211.266
5348.716,5152.747
5349.3582,5272.747
5350.0003,5512.91
5350.6425,5479.212
5351.2846,5415.971
5351.9268,5522.376
5352.5689,5622.429
5353.2111,5739.177
5353.8532,5982.795
5354.4954,6087.012
5355.1375,5893.66
5355.7797,5896.858
5356.4218,5893.454
5357.0639,5956.138
5357.7061,6273.364
5358.3482,6327.146
5358.9904,6438.065
5359.6325,6285.149
5360.2747,6297.534
5360.9168,6103.263
5361.559,6087.214
5362.2011,6169.127
5362.8433,5853.168
5363.4854,5844.675
5364.1276,5929.182
5364.7697,5729.209
5365.4119,5697.244
5366.054,5681.91
5366.6962,5509.64
5367.3383,5543.666
5367.9804,5540.264
5368.6226,5406.466
5369.2647,5289.515
5369.9069,5234.119
5370.549,5177.016
5371.1912,5149.478
5371.8333,5132.514
5372.4755,4892.519
5373.1176,4772.048
5373.7598,4752.443
5374.4019,4990.136
5375.0441,5217.251
5375.6862,5639.183
5376.3284,5846.445
5376.9705,5911.232
5377.6127,6092.528
5378.2548,6084.256
5378.897,5944.171
5379.5391,5842.517
5380.1812,5897.411
5380.8234,6075.872
5381.4655,6075.07
5382.1077,5836.887
5382.7498,5947.485
5383.392,5958.944
5384.0341,6011.626
5384.6763,5866.587
5385.3184,5891.642
5385.9606,5611.619
5386.6027,5621.496
5387.2449,5935.492
5387.887,5989.998
5388.5292,5857.579
5389.1713,5876.796
5389.8135,6055.153
5390.4556,5818.472
5391.0978,5639.34
5391.7399,5609.778
5392.382,5429.183
5393.0242,5565.32
5393.6663,5526.421
5394.3085,5509.332
5394.9506,5356.43
5395.5928,5160.708
5396.2349,5189.801
5396.8771,5339.166
5397.5192,5295.375
5398.1614,5258.932
5398.8035,5184.773
5399.4457,5279.399
5400.0878,5104.275
5400.73,5464.827
5401.3721,5643.317
5402.0143,5675.389
5402.6564,5610.002
5403.2985,5550.123
5403.9407,5405.438
5404.5828,5312.474
5405.225,5370.273
5405.8671,5351.404
5406.5093,5113.018
5407.1514,4844.123
5407.7936,4700.849
5408.4357,4600.437
5409.0779,4744.771
5409.72,4961.187
5410.3622,5261.325
5411.0043,5332.715
5411.6465,5309.431
5412.2886,5106.85
5412.9308,5036.063
5413.5729,5440.358
5414.2151,5688.467
5414.8572,5902.144
5415.4993,5653.465
5416.1415,5279.914
5416.7836,5104.556
5417.4258,4900.509
5418.0679,5267.061
5418.7101,6006.271
5419.3522,6182.186
5419.9944,6387.207
5420.6365,6489.983
5421.2787,6341.653
5421.9208,6138.806
5422.563,6124.062
5423.2051,6061.31
5423.8473,6011.899
5424.4894,6239.671
5425.1316,6255.012
5425.7737,5945.436
5426.4158,5906.972
5427.058,6005.277
5427.7001,5918.211
5428.3423,5975.639
5428.9844,6133.763
5429.6266,6011.303
5430.2687,5974.484
5430.9109,5769.842
5431.553,5436.652
5432.1952,5206.132
5432.8373,5368.787
5433.4795,5325.037
5434.1216,5767.832
5434.7638,5268.563
5435.4059,5555.683
5436.0481,5285.003
5436.6902,5411.355
5437.3324,5370.84
5437.9745,5767.626
5438.6166,5807.443
5439.2588,5875.811
5439.9009,6159.521
5440.5431,6369.604
5441.1852,6423.588
5441.8274,6480.931
5442.4695,6676.062
5443.1117,6651.252
5443.7538,6522.451
5444.396,6367.554
5445.0381,6203.758
5445.6803,6120.784
5446.3224,5962.437
5446.9646,5661.355
5447.6067,5365.238
5448.2489,5316.912
5448.891,5432.966
5449.5332,5573.532
5450.1753,5661.855
5450.8174,5632.96
5451.4596,6022.337
5452.1017,5991.645
5452.7439,6277.081
5453.386,5896.773
5454.0282,6042.258
5454.6703,5952.035
5455.3125,6018.056
5455.9546,5683.445
5456.5968,5457.69
5457.2389,5629.676
5457.8811,5488.876
5458.5232,5514.905
5459.1654,5843.82
5459.8075,6166.699
5460.4497,6333.735
5461.0918,6229.798
5461.7339,6130.064
5462.3761,6129.818
5463.0182,6057.254
5463.6604,5978.55
5464.3025,5844.109
5464.9447,5935.877
5465.5868,6038.646
5466.229,5901.661
5466.8711,6039.467
5467.5133,6209.662
5468.1554,6260.448
5468.7976,6422.285
5469.4397,6348.615
5470.0819,6299.153
5470.724,6096.143
5471.3662,6224.023
5472.0083,6156.442
5472.6505,6258.394
5473.2926,6248.647
5473.9347,5810.297
5474.5769,6141.801
5475.219,6099.178
5475.8612,5930.67
5476.5033,5688.559
5477.1455,5743.521
5477.7876,5778.231
5478.4298,5859.638
5479.0719,5796.01
5479.7141,5622.644
5480.3562,5406.034
5480.9984,5721.57
5481.6405,6063.391
5482.2827,6018.904
5482.9248,5943.314
5483.567,5895.81
5484.2091,5839.602
5484.8513,5872.602
5485.4934,6187.474
5486.1355,6295.183
5486.7777,6189.707
5487.4198,6435.172
5488.062,6352.982
5488.7041,6277.906
5489.3463,6259.774
5489.9884,6027.06
5490.6306,6250.112
5491.2727,6220.761
5491.9149,6317.248
5492.557,6505.544
5493.1992,6664.204
5493.8413,6646.03
5494.4835,6618.919
5495.1256,6388.971
5495.7678,6282.099
5496.4099,6473.19
5497.052,6293.717
5497.6942,6329.293
5498.3363,6121.851
5498.9785,6339.38
5499.6206,6231.704
5500.2628,5880.357
5500.9049,6296.121
5501.5471,6302.185
5502.1892,6262.524
5502.8314,6225.311
5503.4735,6148.345
5504.1157,5947.548
5504.7578,5783.684
5505.4,6030.52
5506.0421,6208.059
5506.6843,6089.561
5507.3264,6002.198
5507.9686,6121.662
5508.6107,6131.069
5509.2528,5921.949
5509.895,6119.827
5510.5371,6277.255
5511.1793,6344.384
5511.8214,6472.271
5512.4636,6170.352
5513.1057,5860.784
5513.7479,5841.569
5514.39,5770.365
5515.0322,5580.28
5515.6743,5917.658
5516.3165,5846.779
5516.9586,6066.09
5517.6008,5954.833
5518.2429,6094.767
5518.8851,6389.268
5519.5272,6728.766
5520.1693,6491.76
5520.8115,6577.823
5521.4536,6585.394
5522.0958,6692.722
5522.7379,6592.696
5523.3801,6570.405
5524.0222,6657.661
5524.6644,6659.938
5525.3065,6670.251
5525.9487,6520.209
5526.5908,6320.026
5527.233,6323.492
5527.8751,6306.992
5528.5173,6165.448
5529.1594,6122.176
5529.8016,6150.127
5530.4437,6097.729
5531.0859,6014.347
5531.728,6065.986
5532.3701,6425.66
5533.0123,6835.568
5533.6544,6744.376
5534.2966,6517.24
5534.9387,6557.649
5535.5809,6588.385
5536.223,6499.589
5536.8652,6467.35
5537.5073,6585.396
5538.1495,6324.698
5538.7916,6521.267
5539.4338,6422.348
5540.0759,6962.661
5540.7181,6776.875
5541.3602,6757.58
5542.0024,6614.536
5542.6445,6897.526
5543.2867,6868.218
5543.9288,6684.457
5544.5709,6662.522
5545.2131,6582.39
5545.8552,6426.185
5546.4974,6343.389
5547.1395,6751.356
5547.7817,6851.216
5548.4238,6741.638
5549.066,6716.074
5549.7081,6715.132
5550.3503,6816.831
5550.9924,6974.95
5551.6346,7041.164
5552.2767,6898.894
5552.9189,6823.063
5553.561,6952.524
5554.2032,7160.439
5554.8453,7058.747
5555.4874,7063.161
5556.1296,6901.975
5556.7717,6706.728
5557.4139,6812.396
5558.056,6699.071
5558.6982,6522.827
5559.3403,6707.315
5559.9825,6715.276
5560.6246,6748.065
5561.2668,6697.86
5561.9089,6620.373
5562.5511,6798.346
5563.1932,6617.413
5563.8354,6490.59
5564.4775,6567.736
5565.1197,6607.849
5565.7618,6624.88
5566.404,6230.096
5567.0461,6208.804
5567.6882,6253.104
5568.3304,6322.797
5568.9725,6166.779
5569.6147,6305.154
5570.2568,6378.744
5570.899,6252.75
5571.5411,6377.749
5572.1833,6391.885
5572.8254,6353.932
5573.4676,6396.082
5574.1097,6317.73
5574.7519,6256.799
5575.394,6276.396
5576.0362,6353.854
5576.6783,6425.555
5577.3205,6528.633
5577.9626,6648.801
5578.6047,6694.205
5579.2469,6657.396
5579.889,6492.721
5580.5312,6650.487
5581.1733,6615.769
5581.8155,6671.201
5582.4576,6687.355
5583.0998,6869.494
5583.7419,6414.782
5584.3841,6710.887
5585.0262,6427.324
5585.6684,6385.36
5586.3105,6658.136
5586.9527,6319.796
5587.5948,5916.531
5588.237,5900.914
5588.8791,5883.087
5589.5213,5657.709
5590.1634,5538.095
5590.8055,5466.774
5591.4477,5352.247
5592.0898,5536.185
5592.732,5933.447
5593.3741,6118.106
5594.0163,6318.719
5594.6584,6297.004
5595.3006,6255.959
5595.9427,6326.499
5596.5849,6203.408
5597.227,6021.562
5597.8692,6081.496
5598.5113,6356.882
5599.1535,6432.824
5599.7956,6245.517
5600.4378,6112.305
5601.0799,6022.311
5601.7221,5987.851
5602.3642,6016.91
5603.0063,6216.859
5603.6485,6196.358
5604.2906,6046.195
5604.9328,5986.237
5605.5749,6284.848
5606.2171,6506.224
5606.8592,6688.616
5607.5014,7122.666
5608.1435,7010.195
5608.7857,7066.311
5609.4278,7123.412
5610.07,7181.928
5610.7121,6889.301
5611.3543,7348.806
5611.9964,7069.468
5612.6386,6913.049
5613.2807,6948.497
5613.9228,7016.024
5614.565,6634.668
5615.2071,6470.926
5615.8493,6411.83
5616.4914,6315.776
5617.1336,6181.043
5617.7757,5872.966
5618.4179,5805.495
5619.06,5928.654
5619.7022,6145.253
5620.3443,6564.3
5620.9865,6759.436
5621.6286,6603.51
5622.2708,6664.478
5622.9129,6472.386
5623.5551,6305.714
5624.1972,6634.237
5624.8394,6717.818
5625.4815,6565.358
5626.1236,6476.22
5626.7658,6169.881
5627.4079,6282.997
5628.0501,6504.316
5628.6922,6555.951
5629.3344,6674.024
5629.9765,6914.157
5630.6187,6646.094
5631.2608,6615.975
5631.903,7007.313
5632.5451,6886.353
5633.1873,7085.521
5633.8294,7039.559
5634.4716,6999.785
5675.569,7128.701
5676.2111,7013.486
5676.8533,6930.475
5677.4954,6975.453
5678.1376,6968.317
5678.7797,6764.334
5679.4219,6765.846
5680.064,6933.781
5680.7062,6866.389
5681.3483,6850.737
5681.9905,6887.482
5682.6326,6844.1
5683.2748,6753.717
5683.9169,6831.967
5684.559,6661.562
5685.2012,6296.754
5685.8433,6331.119
5686.4855,6631.996
5687.1276,6751.619
5687.7698,6646.814
5688.4119,6472.654
5689.0541,6454.727
5689.6962,6434.392
5690.3384,6434.564
5690.9805,6438.7
5691.6227,6491.861
5692.2648,6955.199
5692.907,6886.424
5693.5491,6907.756
5694.1913,6880.216
5694.8334,6903.195
5695.4756,7190.277
5696.1177,7097.3
5696.7598,6745.854
5697.402,6960.62
5698.0441,7052.347
5698.6863,7039.698
5699.3284,6903.598
5699.9706,6911.732
5700.6127,6680.834
5701.2549,6554.853
5701.897,6503.275
5702.5392,6638.539
5703.1813,6814.326
5703.8235,6559.07
5704.4656,6439.907
5705.1078,6584.237
5705.7499,6611.696
5706.3921,6535.766
5707.0342,6586.25
5707.6763,6503.862
5708.3185,6342.853
5708.9606,6349.658
5709.6028,6415.089
5710.2449,6518.553
5710.8871,6302.851
5711.5292,6105.27
5712.1714,6246.901
5712.8135,6103.216
5713.4557,6118.986
5714.0978,6303.216
5714.74,6303.686
5715.3821,6417.029
5716.0243,6646.1
5716.6664,6728.497
5717.3086,6803.303
5717.9507,6857.02
5718.5929,7110.989
5719.235,6701.317
5719.8771,6614.981
5720.5193,6852.745
5721.1614,6907.98
5721.8036,7347.69
5722.4457,7197.428
5723.0879,7188.478
5723.73,7191.665
5724.3722,7479.657
5725.0143,8102.583
5725.6565,7889.793
5726.2986,7306.731
5726.9408,7069.388
5727.5829,6867.602
5728.2251,7051.541
5728.8672,6929.263
5729.5094,6680.74
5730.1515,6560.586
5730.7936,6580.947
5731.4358,6751.652
5732.0779,6716.786
5732.7201,6898.107
5733.3622,7114.572
5734.0044,6994.199
5734.6465,6856.502
5735.2887,6922.393
5735.9308,7231.236
5736.573,7231.424
5737.2151,7110.563
5737.8573,6997.826
5738.4994,6900.949
5739.1416,6736.776
5739.7837,6738.524
5740.4259,6809.094
5741.068,6816.617
5741.7102,6907.338
5742.3523,7012.282
5742.9944,7020.386
5743.6366,6992.095
5744.2787,7209.987
5744.9209,7218.8
5745.563,7014.51
5746.2052,6905.451
5746.8473,7053.876
5747.4895,7128.47
5748.1316,7048.334
5748.7738,7259.33
5749.4159,7018.102
5750.0581,7079.317
5750.7002,7057.477
5751.3424,7039.161
5751.9845,6732.608
5752.6267,6952.987
5753.2688,6930.637
5753.911,6746.634
5754.5531,6662.499
5755.1952,6701.944
5755.8374,6822.706
5756.4795,6785.162
5757.1217,6725.911
5757.7638,6853.896
5758.406,6909.515
5759.0481,6913.043
5759.6903,7065.484
5760.3324,6968.788
5760.9746,6825.365
5761.6167,7137.622
5762.2589,6851.838
5762.901,6987.688
5763.5432,6816.653
5764.1853,6617.075
5764.8275,6575.159
5765.4696,6711.31
5766.1117,6812.659
5766.7539,6812.326
5767.396,7043.418
5768.0382,6936.562
5768.6803,7075.248
5769.3225,7110.901
5769.9646,7072.211
5770.6068,7062.396
5771.2489,7076.456
5771.8911,6997.203
5772.5332,7018.928
5773.1754,7006.543
5773.8175,6878.814
5774.4597,6902.347
5775.1018,6882.997
5775.744,6886.14
5776.3861,6852.331
5777.0283,6800.375
5777.6704,6887.72
5778.3125,6894.065
5778.9547,6804.708
5779.5968,6799.104
5780.239,6786.654
5780.8811,6740.638
5781.5233,6753.381
5782.1654,6432.787
5782.8076,6452.636
5783.4497,6474.82
5784.0919,6137.43
5784.734,6095.566
5785.3762,6320.474
5786.0183,6418.17
5786.6605,6522.522
5787.3026,6579.964
5787.9448,6393.927
5788.5869,6416.239
5789.229,6633.417
5789.8712,6523.296
5790.5133,6655.514
5791.1555,6662.819
5791.7976,6786.872
5792.4398,6632.688
5793.0819,6765.364
5793.7241,7003.147
5794.3662,6839.689
5795.0084,6910.128
5795.6505,7034.617
5796.2927,7163.567
5796.9348,6998.118
5797.577,7244.221
5798.2191,6926.996
5798.8613,6999.25
5799.5034,7153.299
5800.1456,7315.066
5800.7877,7200.426
5801.4298,7070.896
5802.072,7149.416
5802.7141,7203.458
5803.3563,7218.943
5803.9984,7124.824
5804.6406,7128.169
5805.2827,7299.078
5805.9249,7198.728
5806.567,7116.796
5807.2092,6932.291
5807.8513,7053.323
5808.4935,7086.587
5809.1356,6905.272
5809.7778,7055.963
5810.4199,7227.282
5811.0621,7144.143
5811.7042,7123.255
5812.3464,7138.061
5812.9885,7185.184
5813.6306,7324.022
5814.2728,7203.254
5814.9149,7074.373
5815.5571,7036.668
5816.1992,7089.872
5816.8414,7067.787
5817.4835,6973.131
5818.1257,6916.975
5818.7678,6988.859
5819.41,7114.817
5820.0521,7103.518
5820.6943,7146.406
5821.3364,7224.252
5821.9786,7144.254
5822.6207,7177.992
5823.2629,7108.072
5823.905,7080.908
5824.5471,7136.432
5825.1893,7237.962
5825.8314,7207.091
5826.4736,7196.295
5827.1157,7223.584
5827.7579,7108.021
5828.4,7259.927
5829.0422,7319.289
5829.6843,7182.76
5830.3265,7039.937
5830.9686,7306.896
5831.6108,7386.016
5832.2529,7045.375
5832.8951,7110.746
5833.5372,7317.503
5834.1794,7346.058
5834.8215,7344.038
5835.4637,7204.812
5836.1058,7205.692
5836.7479,6928.469
5837.3901,6982.115
5838.0322,6924.261
5838.6744,7060.379
5839.3165,7138.887
5839.9587,7372.84
5840.6008,7003.307
5841.243,7214.846
5841.8851,7319.826
5842.5273,7218.774
5843.1694,7279.456
5843.8116,7328.15
5844.4537,7405.241
5845.0959,7287.893
5845.738,7160.79
5846.3802,7137.925
5847.0223,7044.393
5847.6644,7038.786
5848.3066,7341.907
5848.9487,7100.271
5849.5909,7146.217
5850.233,7346.964
5850.8752,7091.984
5851.5173,6990.042
5852.1595,6853.67
5852.8016,6965.156
5853.4438,7031.547
5854.0859,6950.955
5854.7281,6791.979
5855.3702,6743.914
5856.0124,6616.826
5856.6545,6507.215
5857.2967,6557.405
5857.9388,6618.871
5858.581,6624.727
5859.2231,6429.763
5859.8652,6336.321
5860.5074,6344.575
5861.1495,6313.75
5861.7917,6499.068
5862.4338,6899.046
5863.076,6939.378
5863.7181,6766.074
5864.3603,6772.436
5865.0024,6746.024
5865.6446,6737.467
5866.2867,6761.271
5866.9289,6764.849
5867.571,6884.235
5868.2132,6936.858
5868.8553,6898.043
5869.4975,6793.627
5870.1396,6863.307
5870.7818,7084.813
5871.4239,7075.391
5872.066,7092.804
5872.7082,7037.085
5873.3503,6641.195
5873.9925,6822.38
5874.6346,6917.376
5875.2768,6909.183
5875.9189,6980.808
5876.5611,6980.928
5877.2032,6900.814
5877.8454,7025.313
5878.4875,6928.874
5879.1297,6675.603
5879.7718,6799.937
5880.414,6793.178
5881.0561,6580.596
5881.6983,6415.048
5882.3404,6436.148
5882.9825,6282.876
5883.6247,6528.441
5884.2668,6293.243
5884.909,6089.495
5885.5511,5998.687
5886.1933,6088.876
5886.8354,6053.05
5887.4776,5673.977
5888.1197,5471.629
5888.7619,5083.386
5889.404,4738.123
5890.0462,4595.971
5890.6883,4384.354
5891.3305,3787.351
5891.9726,3731.179
5892.6148,3625.659
5893.2569,3651.521
5893.8991,3703.387
5894.5412,4077.653
5895.1833,3899.359
5895.8255,4153.062
5896.4676,4235.181
5897.1098,4513.965
5897.7519,4260.034
5898.3941,4152.867
5899.0362,4238.571
5899.6784,4208.798
5900.3205,5023.413
5900.9627,5429.672
5901.6048,5754.413
5902.247,5751.846
5902.8891,5785.358
5903.5313,6259.277
5904.1734,6402.482
5904.8156,6269.953
5905.4577,6266.313
5906.0999,6342.324
5906.742,6416.426
5907.3841,6767.98
5908.0263,6639.208
5908.6684,6523.117
5909.3106,6511.048
5909.9527,6519.627
5910.5949,6876.738
5911.237,6837.97
5911.8792,6828.174
5912.5213,6686.595
5913.1635,6708.641
5913.8056,6778.125
5914.4478,6882.96
5915.0899,6661.853
5915.7321,6600.777
5916.3742,6483.75
5917.0164,6477.26
5917.6585,6313.354
5918.3006,6586.542
5918.9428,6629.782
5919.5849,6597.563
5920.2271,6711.5
5920.8692,6763.504
5921.5114,6801.843
5922.1535,6875.136
5922.7957,6751.673
5923.4378,6788.703
5924.08,6944.515
5924.7221,6662.472
5925.3643,6617.849
5926.0064,6700.074
5926.6486,6672.65
5927.2907,6695.074
5927.9329,6834.331
5928.575,7028.922
5929.2172,6915.527
5929.8593,6658.54
5930.5014,6715.231
5931.1436,6756.668
5931.7857,6686.797
5932.4279,6719.642
5933.07,6753.192
5933.7122,6665.163
5934.3543,6809.81
5934.9965,7051.007
5935.6386,6945.423
5936.2808,6946.603
5936.9229,6975.667
5937.5651,6996.756
5938.2072,6807.786
5938.8494,6920.03
5939.4915,6767.156
5940.1337,6604.74
5940.7758,6845.3
5941.4179,6868.251
5942.0601,7068.549
5942.7022,7046.089
5943.3444,6839.895
5943.9865,6766.952
5944.6287,6790.563
5945.2708,6824.894
5945.913,6750.901
5946.5551,6945.249
5947.1973,6884.754
5947.8394,6818.672
5948.4816,6914.382
5949.1237,6940.046
5949.7659,6948.119
5950.408,6910.748
5951.0502,6696.831
5951.6923,6673.482
5952.3345,6574.978
5952.9766,6665.008
5953.6187,6496.093
5954.2609,6637.702
5954.903,6656.064
5955.5452,6671.753
5956.1873,6732.538
5956.8295,6852.801
5957.4716,6820.984
5958.1138,6723.42
5958.7559,6826.801
5959.3981,6668.535
5960.0402,6762.84
5960.6824,6630.975
5961.3245,6872.458
5961.9667,7003.323
5962.6088,7040.474
5963.251,7183.178
5963.8931,6986.26
5964.5353,7265.209
5965.1774,7215.213
5965.8195,6978.251
5966.4617,7035.997
5967.1038,6823.242
5967.746,7047.015
5968.3881,6829.425
5969.0303,6886.488
5969.6724,6791.375
5970.3146,7113.188
5970.9567,7026.959
5971.5989,7156.673
5972.241,7160.135
5972.8832,7173.351
5973.5253,7273.814
5974.1675,6921.563
5974.8096,7026.808
5975.4518,6983.333
5976.0939,7183.239
5976.736,6792.623
5977.3782,6893.513
5978.0203,6976.919
5978.6625,6869.907
5979.3046,6738.691
5979.9468,6474.116
5980.5889,6555.042
5981.2311,7072.153
5981.8732,6760.563
5982.5154,6767.074
5983.1575,6903.661
5983.7997,6971.405
5984.4418,6712.929
5985.084,6942.679
5985.7261,6699.098
5986.3683,6528.095
5987.0104,6416.978
5987.6526,6526.511
5988.2947,6596.961
5988.9368,6585.516
5989.579,6403.892
5990.2211,6795.963
5990.8633,6793.606
5991.5054,7143.604
5992.1476,7110.973
5992.7897,7032.352
5993.4319,7012.612
5994.074,7264.371
5994.7162,7169.687
5995.3583,7033.852
5996.0005,6967.044
5996.6426,7213.327
5997.2848,7054.114
5997.9269,7027.733
5998.5691,6965.378
5999.2112,6820.308
5999.8533,6986.333
6000.4955,7082.217
6001.1376,6855.962
6001.7798,7051.768
6002.4219,6910.436
6003.0641,6912.388
6003.7062,6938.775
6004.3484,6784.524
6004.9905,6782.744
6005.6327,6795.504
6006.2748,6717.858
6006.917,6634.718
6007.5591,6779.033
6008.2013,6737.209
6008.8434,6593.921
6009.4856,6792.987
6010.1277,6902.135
6010.7699,6662.002
6011.412,6440.52
6012.0541,6631.21
6012.6963,6849.812
6013.3384,6958.177
6013.9806,6763.414
6014.6227,6885.965
6015.2649,6896.356
6015.907,6798.587
6016.5492,6646.351
6017.1913,6820.159
6017.8335,6824.682
6018.4756,6895.886
6019.1178,6865.308
6019.7599,6838.541
6020.4021,6817.811
6021.0442,6965.653
6021.6864,6702.072
6022.3285,6718.24
6022.9707,6627.155
6023.6128,6318.627
6024.2549,6556.33
6024.8971,6697.0
6025.5392,6730.327
6026.1814,6787.613
6026.8235,6914.387
6027.4657,6807.124
6028.1078,6882.804
6028.75,7035.261
6029.3921,7068.925
6030.0343,7414.888
6030.6764,7125.14
6031.3186,6982.771
6031.9607,7082.365
6032.6029,7136.625
6033.245,7147.553
6033.8872,7377.979
6034.5293,7275.79
6035.1714,7344.434
6035.8136,7201.605
6036.4557,7222.925
6037.0979,7028.52
6037.74,7153.355
6038.3822,6958.808
6039.0243,6940.811
6039.6665,7190.188
6040.3086,7133.384
6040.9508,7318.28
6041.5929,7302.725
6042.2351,7014.39
6042.8772,7074.391
6043.5194,7189.572
6044.1615,7319.42
6044.8037,7328.513
6045.4458,7389.349
6046.088,7282.429
6046.7301,7347.669
6047.3722,7327.427
6048.0144,7411.663
6048.6565,7283.206
6049.2987,7051.27
6049.9408,7099.262
6050.583,7255.365
6051.2251,7333.466
6051.8673,7264.723
6052.5094,7364.693
6053.1516,7313.522
6053.7937,7268.519
6054.4359,7106.22
6055.078,7071.537
6055.7202,7162.138
6056.3623,6982.164
6057.0045,6934.117
6057.6466,7054.276
6058.2887,7016.322
6058.9309,7126.464
6059.573,7009.644
6060.2152,6896.162
6060.8573,7214.557
6061.4995,7221.99
6062.1416,7218.877
6062.7838,7339.481
6063.4259,7267.325
6064.0681,7287.232
6064.7102,6925.867
6065.3524,6891.946
6065.9945,7109.973
6066.6367,7170.689
6067.2788,7046.664
6067.921,6875.228
6068.5631,6973.143
6069.2053,6985.435
6069.8474,7398.872
6070.4895,7113.253
6071.1317,7246.892
6071.7738,7186.223
6072.416,7326.686
6073.0581,7336.808
6073.7003,7356.468
6074.3424,7375.543
6074.9846,7444.387
6075.6267,7496.64
6076.2689,7263.414
6076.911,7245.338
6077.5532,7223.279
6078.1953,7225.441
6078.8375,7051.181
6079.4796,6774.161
6080.1218,6852.705
6080.7639,7061.348
6081.4061,7030.629
6082.0482,6760.882
6082.6903,7220.122
6083.3325,7211.341
6083.9746,6799.707
6084.6168,6965.224
6085.2589,7043.965
6085.9011,7003.918
6086.5432,7006.136
6087.1854,7031.571
6087.8275,6988.023
6088.4697,6789.348
6089.1118,6834.324
6089.754,6967.868
6090.3961,6981.973
6091.0383,7004.643
6091.6804,7120.731
6092.3226,6935.428
6092.9647,6954.138
6093.6068,7018.817
6094.249,7017.135
6094.8911,7219.839
6095.5333,7128.978
6096.1754,7179.729
6096.8176,7273.991
6097.4597,7126.31
6098.1019,7331.309
6098.744,7284.739
6099.3862,7158.248
6100.0283,7279.125
6100.6705,7093.547
6101.3126,6759.684
6101.9548,6658.848
6102.5969,6623.336
6103.2391,6653.982
6103.8812,6485.47
6104.5234,6664.201
6105.1655,6191.671
6105.8076,6283.097
6106.4498,6599.053
6107.0919,6796.968
6107.7341,7004.393
6108.3762,7039.029
6109.0184,7083.503
6109.6605,7235.451
6110.3027,7032.083
6110.9448,7074.81
6111.587,7009.588
6112.2291,7263.869
6112.8713,6894.101
6113.5134,7285.714
6114.1556,7212.072
6114.7977,7100.827
6115.4399,6841.624
6116.082,7156.53
6116.7241,7313.158
6117.3663,7208.901
6118.0084,7075.662
6118.6506,7243.105
6119.2927,7021.298
6119.9349,7077.914
6120.577,6882.174
6121.2192,6489.851
6121.8613,6519.829
6122.5035,6496.979
6123.1456,6288.954
6123.7878,6515.363
6124.4299,6061.862
6125.0721,5866.086
6125.7142,6353.17
6126.3564,6164.301
6126.9985,6729.219
6127.6407,6814.159
6128.2828,7140.183
6128.9249,7057.14
6129.5671,6718.414
6130.2092,7285.267
6130.8514,7062.23
6131.4935,7307.324
6132.1357,7231.269
6132.7778,7176.229
6133.42,7203.036
6134.0621,7372.537
6134.7043,7211.92
6135.3464,7171.214
6135.9886,6970.929
6136.6307,6980.548
6137.2729,6597.468
6137.915,6281.689
6138.5572,6146.936
6139.1993,6358.936
6139.8415,6362.28
6140.4836,6195.186
6141.1257,6657.051
6141.7679,6861.659
6142.41,6943.305
6143.0522,7034.564
6143.6943,7236.971
6144.3365,7023.125
6144.9786,7275.627
6145.6208,7008.304
6146.2629,7190.316
6146.9051,7115.323
6147.5472,7199.255
6148.1894,7391.128
6148.8315,7281.659
6149.4737,7418.609
6150.1158,7230.988
6150.758,7187.72
6151.4001,6988.815
6152.0422,7098.104
6152.6844,6874.668
6153.3265,6973.377
6153.9687,7081.179
6154.6108,7225.395
6155.253,6878.198
6155.8951,7003.576
6156.5373,6759.838
6157.1794,6849.613
6157.8216,6867.845
6158.4637,6674.37
6159.1059,6722.007
6159.748,6699.174
6160.3902,6389.281
6161.0323,6201.048
6161.6745,5952.271
6162.3166,5953.732
6162.9588,5649.181
6163.6009,5268.658
6164.243,5291.153
6164.8852,5401.911
6165.5273,5423.896
6166.1695,5642.041
6166.8116,5976.425
6167.4538,6059.04
6168.0959,6283.495
6168.7381,6257.627
6169.3802,6253.635
6170.0224,6324.589
6170.6645,6523.229
6171.3067,6460.771
6171.9488,6217.823
6172.591,6031.847
6173.2331,6036.837
6173.8753,6395.12
6174.5174,6763.017
6175.1596,6811.454
6175.8017,6822.63
6176.4438,6838.553
6177.086,6739.109
6177.7281,6786.079
6178.3703,6994.393
6179.0124,7055.845
6179.6546,6930.859
6180.2967,7032.2
6180.9389,7059.842
6181.581,6943.359
6182.2232,7082.506
6182.8653,7029.465
6183.5075,6941.173
6184.1496,6843.601
6184.7918,6858.452
6185.4339,6968.782
6186.0761,7019.626
6186.7182,7120.861
6187.3603,7091.308
6188.0025,6880.523
6188.6446,6769.002
6189.2868,6500.265
6189.9289,6367.339
6190.5711,6732.476
6191.2132,6584.299
6191.8554,6373.52
6192.4975,6422.694
6193.1397,6519.591
6193.7818,6409.872
6194.424,6405.637
6195.0661,6592.693
6195.7083,6655.982
6196.3504,7171.466
6196.9926,7204.246
6197.6347,7234.616
6198.2769,7013.087
6198.919,7004.503
6199.5611,6833.195
6200.2033,6973.863
6200.8454,6835.396
6201.4876,6847.927
6202.1297,6771.858
6202.7719,6706.414
6203.414,6688.855
6204.0562,6973.295
6204.6983,6994.958
6205.3405,6885.709
6205.9826,7211.554
6206.6248,7097.364
6207.2669,7095.213
6207.9091,7085.431
6208.5512,7195.665
6209.1934,7114.513
6209.8355,7005.4
6210.4776,7358.607
6211.1198,6871.695
6211.7619,6746.85
6212.4041,6885.127
6213.0462,6452.976
6213.6884,6631.572
6214.3305,6764.153
6214.9727,6553.583
6215.6148,6434.988
6216.257,6514.577
6216.8991,6312.364
6217.5413,6314.416
6218.1834,6187.398
6218.8256,6128.241
6219.4677,6459.053
6220.1099,6464.421
6220.752,6367.526
6221.3942,6532.171
6222.0363,6582.552
6222.6784,6627.399
6223.3206,6513.087
6223.9627,6729.845
6224.6049,6728.873
6225.247,6334.403
6225.8892,6515.922
6226.5313,6588.962
6227.1735,6772.606
6227.8156,6670.273
6228.4578,6583.446
6229.0999,6460.326
6229.7421,6605.104
6230.3842,6712.371
6231.0264,6544.135
6231.6685,6240.13
6232.3107,5958.965
6232.9528,6107.722
6233.595,6296.636
6234.2371,6177.416
6234.8792,6298.733
6235.5214,6412.924
6236.1635,6476.504
6236.8057,6581.85
6237.4478,6855.514
6238.09,6805.97
6238.7321,6734.475
6239.3743,6908.397
6240.0164,6708.686
6240.6586,6621.896
6241.3007,6585.172
6241.9429,6307.381
6242.585,6277.571
6243.2272,6469.356
6243.8693,6446.92
6244.5115,6479.688
6245.1536,6272.536
6245.7957,6209.135
6246.4379,6182.793
6247.08,6394.926
6247.7222,6434.687
6248.3643,6405.652
6249.0065,6451.101
6249.6486,6320.562
6250.2908,6385.118
6250.9329,6557.071
6251.5751,6757.131
6252.2172,6570.468
6252.8594,6560.602
6253.5015,6050.69
6254.1437,6365.378
6254.7858,6367.254
6255.428,6180.041
6256.0701,5876.281
6256.7123,6119.047
6257.3544,6280.002
6257.9965,6047.491
6258.6387,6004.685
6259.2808,6269.051
6259.923,6242.836
6260.5651,6116.379
6261.2073,5949.487
6261.8494,6212.865
6262.4916,6458.379
6263.1337,6696.403
6263.7759,6587.804
6264.418,6595.213
6265.0602,6727.216
6265.7023,6844.545
6266.3445,6995.944
6266.9866,6829.479
6267.6288,6624.547
6268.2709,6652.033
6268.913,6393.95
6269.5552,6612.503
6270.1973,6846.125
6270.8395,6454.309
6271.4816,6699.792
6272.1238,6586.845
6272.7659,6706.338
6273.4081,6945.485
6274.0502,6679.94
6274.6924,6819.91
6275.3345,6615.251
6275.9767,6633.185
6276.6188,6755.261
6277.261,6815.955
6277.9031,6797.146
6278.5453,6509.032
6279.1874,6469.339
6279.8296,6585.369
6280.4717,6524.239
6281.1138,6465.633
6281.756,6549.522
6282.3981,6739.452
6283.0403,6767.436
6283.6824,6665.239
6284.3246,6664.185
6284.9667,6828.103
6285.6089,6835.571
6286.251,6893.736
6286.8932,6891.423
6287.5353,6768.339
6288.1775,6824.865
6288.8196,7073.331
6289.4618,7088.665
6290.1039,6953.772
6290.7461,6937.706
6291.3882,6973.566
6292.0304,6773.281
6292.6725,7011.922
6293.3146,6861.05
6293.9568,6669.745
6294.5989,6607.404
6295.2411,6475.601
6295.8832,6668.622
6296.5254,6404.521
6297.1675,6518.981
6297.8097,6836.214
6298.4518,6637.354
6299.094,6559.623
6299.7361,6478.076
6300.3783,6251.078
6301.0204,6396.742
6301.6626,6213.565
6302.3047,6455.0
6302.9469,6760.529
6303.589,6621.543
6304.2311,6180.638
6304.8733,6365.916
6305.5154,6321.334
6306.1576,6703.816
6306.7997,6853.17
6307.4419,6989.778
6308.084,6874.339
6308.7262,6723.111
6309.3683,7029.06
6310.0105,7213.019
6310.6526,6898.802
6311.2948,6803.393
6311.9369,6930.705
6312.5791,6855.239
6313.2212,6823.362
6313.8634,6762.383
6314.5055,6644.854
6365.2351,6564.784
6365.8773,6609.078
6366.5194,6775.635
6367.1616,6794.516
6367.8037,7096.221
6368.4459,7145.979
6369.088,7287.693
6369.7302,7023.899
6370.3723,7193.574
6371.0145,7204.831
6371.6566,7121.28
6372.2988,7382.02
6372.9409,7444.081
6373.5831,7308.706
6374.2252,7166.438
6374.8673,7300.183
6375.5095,7334.905
6376.1516,7302.144
6376.7938,7209.574
6377.4359,7277.203
6378.0781,7376.203
6378.7202,7519.146
6379.3624,7267.825
6380.0045,7075.894
6380.6467,7030.358
6381.2888,6998.209
6381.931,7068.623
6382.5731,7049.456
6383.2153,7015.31
6383.8574,6885.893
6384.4996,6794.455
6385.1417,7053.65
6385.7839,7138.555
6386.426,7219.055
6387.0681,7017.739
6387.7103,7152.868
6388.3524,7194.678
6388.9946,7238.377
6389.6367,7080.685
6390.2789,7010.847
6390.921,7213.162
6391.5632,6901.592
6392.2053,6980.117
6392.8475,6954.315
6393.4896,6895.574
6394.1318,6989.671
6394.7739,6976.296
6395.4161,6762.955
6396.0582,6757.812
6396.7004,6887.304
6397.3425,7060.195
6397.9846,6928.858
6398.6268,6881.225
6399.2689,6755.015
6399.9111,6772.622
6400.5532,6993.294
6401.1954,6896.096
6401.8375,6799.983
6402.4797,6745.8
6403.1218,6859.849
6403.764,7006.158
6404.4061,7089.894
6405.0483,7258.278
6405.6904,7370.229
6406.3326,7330.72
6406.9747,7131.582
6407.6169,7187.298
6408.259,7302.634
6408.9012,7212.541
6409.5433,7125.313
6410.1854,6979.904
6410.8276,6777.118
6411.4697,6792.569
6412.1119,6817.075
6412.754,6803.678
6413.3962,6997.925
6414.0383,7099.593
6414.6805,7116.439
6415.3226,6962.978
6415.9648,7122.475
6416.6069,7259.857
6417.2491,6965.059
6417.8912,7194.03
6418.5334,7122.039
6419.1755,7023.203
6419.8177,7037.519
6420.4598,7101.026
6421.1019,7021.103
6421.7441,6816.05
6422.3862,6754.199
6423.0284,6743.409
6423.6705,6799.231
6424.3127,7128.786
6424.9548,7000.171
6425.597,7075.438
6426.2391,7271.365
6426.8813,7209.213
6427.5234,7336.787
6428.1656,7345.305
6428.8077,7313.529
6429.4499,7157.979
6430.092,7174.052
6430.7342,7195.053
6431.3763,7274.576
6432.0185,7080.559
6432.6606,6894.255
6433.3027,6905.419
6433.9449,6925.895
6434.587,7082.883
6435.2292,7104.537
6435.8713,7156.67
6436.5135,7202.136
6437.1556,7068.713
6437.7978,6912.198
6438.4399,6964.249
6439.0821,6963.153
6439.7242,7018.596
6440.3664,7062.883
6441.0085,6800.692
6441.6507,6716.52
6442.2928,6592.709
6442.935,6677.683
6443.5771,6905.78
6444.2193,7131.422
6444.8614,7329.59
6445.5035,7115.912
6446.1457,7371.241
6446.7878,7573.208
6447.43,7450.782
6448.0721,7321.655
6448.7143,7331.952
6449.3564,7306.304
6449.9986,7116.893
6450.6407,6907.055
6451.2829,6835.384
6451.925,6728.358
6452.5672,6758.627
6453.2093,6797.133
6453.8515,6994.944
6454.4936,7217.894
6455.1358,7198.312
6455.7779,7274.377
6456.42,7118.351
6457.0622,6883.281
6457.7043,7021.138
6458.3465,7160.549
6458.9886,7066.089
6459.6308,6939.319
6460.2729,7070.62
6460.9151,7143.086
6461.5572,7007.296
6462.1994,6792.528
6462.8415,7102.723
6463.4837,6953.446
6464.1258,6978.759
6464.768,6632.775
6465.4101,6324.556
6466.0523,6297.437
6466.6944,6483.28
6467.3366,6956.918
6467.9787,7033.958
6468.6208,7180.037
6469.263,7267.39
6469.9051,7154.129
6470.5473,7224.239
6471.1894,7277.941
6471.8316,7219.137
6472.4737,7234.515
6473.1159,7168.538
6473.758,7041.51
6474.4002,6992.457
6475.0423,6890.593
6475.6845,7112.831
6476.3266,7436.775
6476.9688,7567.993
6477.6109,7406.896
6478.2531,7303.235
6478.8952,7214.257
6479.5373,7333.808
6480.1795,7235.776
6480.8216,7189.226
6481.4638,7340.209
6482.1059,7281.036
6482.7481,7418.464
6483.3902,7335.854
6484.0324,7182.549
6484.6745,7179.167
6485.3167,7153.045
6485.9588,7281.562
6486.601,7174.431
6487.2431,7073.328
6487.8853,7062.537
6488.5274,7103.718
6489.1696,7316.358
6489.8117,7278.712
6490.4539,7093.817
6491.096,7160.508
6491.7381,7048.458
6492.3803,6891.665
6493.0224,6735.271
6493.6646,6743.408
6494.3067,6766.143
6494.9489,6713.852
6495.591,6501.311
6496.2332,6387.854
6496.8753,6163.76
6497.5175,5911.368
6498.1596,5945.451
6498.8018,6070.815
6499.4439,6425.92
6500.0861,6507.818
6500.7282,6596.813
6501.3704,6698.135
6502.0125,6586.455
6502.6547,6600.628
6503.2968,6889.125
6503.9389,7066.328
6504.5811,7119.94
6505.2232,7250.5
6505.8654,7274.65
6506.5075,7343.02
6507.1497,7453.659
6507.7918,7080.299
6508.434,7259.744
6509.0761,7370.859
6509.7183,7423.53
6510.3604,7428.387
6511.0026,7346.139
6511.6447,7247.222
6512.2869,7096.264
6512.929,7119.789
6513.5712,7219.441
6514.2133,7240.354
6514.8554,7325.605
6515.4976,7457.287
6516.1397,7356.327
6516.7819,7270.459
6517.424,7139.144
6518.0662,7012.131
6518.7083,6976.26
6519.3505,7030.965
6519.9926,7322.539
6520.6348,7307.877
6521.2769,7203.384
6521.9191,7160.647
6522.5612,7227.118
6523.2034,7287.951
6523.8455,7223.981
6524.4877,7391.98
6525.1298,7290.207
6525.772,7394.914
6526.4141,7417.652
6527.0562,7253.866
6527.6984,7458.59
6528.3405,7372.825
6528.9827,7230.24
6529.6248,7310.988
6530.267,7202.621
6530.9091,7418.532
6531.5513,7385.48
6532.1934,7386.222
6532.8356,7534.535
6533.4777,7464.37
6534.1199,7310.844
6534.762,7328.463
6535.4042,7199.151
6536.0463,7071.116
6536.6885,7077.655
6537.3306,7278.287
6537.9727,7411.441
6538.6149,7568.505
6539.257,7518.915
6539.8992,7198.908
6540.5413,7201.257
6541.1835,7274.337
6541.8256,7256.718
6542.4678,7317.486
6543.1099,7232.914
6543.7521,7316.313
6544.3942,7136.229
6545.0364,6870.835
6545.6785,6933.348
6546.3207,6921.317
6546.9628,7088.699
6547.605,7037.095
6548.2471,7010.951
6548.8893,7136.807
6549.5314,7041.198
6550.1735,6983.566
6550.8157,7084.975
6551.4578,7043.273
6552.1,7153.435
6552.7421,7226.639
6553.3843,6958.945
6554.0264,6960.357
6554.6686,6854.517
6555.3107,6946.839
6555.9529,6791.369
6556.595,7059.22
6557.2372,7069.353
6557.8793,6983.067
6558.5215,7024.142
6559.1636,6951.213
6559.8058,6914.343
6560.4479,7076.145
6561.0901,7305.356
6561.7322,7198.354
6562.3743,7428.807
6563.0165,7505.303
6563.6586,7553.788
6564.3008,7600.272
6564.9429,7552.362
6565.5851,7598.34
6566.2272,7742.355
6566.8694,7594.599
6567.5115,7389.699
6568.1537,7373.04
6568.7958,7223.002
6569.438,6995.244
6570.0801,7089.91
6570.7223,6938.024
6571.3644,6838.555
6572.0066,6870.139
6572.6487,6891.071
6573.2908,6892.756
6573.933,6996.774
6574.5751,6760.769
6575.2173,6752.216
6575.8594,6592.127
6576.5016,6552.877
6577.1437,6899.395
6577.7859,6645.873
6578.428,6866.011
6579.0702,6942.437
6579.7123,6896.735
6580.3545,6872.989
6580.9966,7019.85
6581.6388,6979.872
6582.2809,7190.667
6582.9231,7175.233
6583.5652,7012.282
6584.2074,7066.498
6584.8495,7170.582
6585.4916,7209.291
6586.1338,7303.682
6586.7759,7136.543
6587.4181,7022.001
6588.0602,7125.324
6588.7024,7164.449
6589.3445,7326.49
6589.9867,7172.602
6590.6288,7100.823
6591.271,7032.946
6591.9131,6816.065
6592.5553,7104.732
6593.1974,6605.816
6593.8396,6626.461
6594.4817,6901.229
6595.1239,6843.594
6595.766,6640.519
6596.4082,6624.335
6597.0503,6664.136
6597.6924,6604.736
6598.3346,6822.691
6598.9767,7008.926
6599.6189,7094.278
6600.261,7141.219
6600.9032,7067.414
6601.5453,7044.905
6602.1875,7078.789
6602.8296,7151.16
6603.4718,7026.716
6604.1139,7171.599
6604.7561,7227.006
6605.3982,7226.241
6606.0404,6993.625
6606.6825,6953.954
6607.3247,7027.171
6607.9668,6889.076
6608.6089,6863.659
6609.2511,6842.602
6609.8932,7116.84
6610.5354,7124.689
6611.1775,6903.495
6611.8197,6824.811
6612.4618,6982.092
6613.104,6984.835
6613.7461,6859.01
6614.3883,6863.537
6615.0304,7020.341
6615.6726,7181.811
6616.3147,7033.641
6616.9569,7022.17
6617.599,7123.412
6618.2412,6996.897
6618.8833,6971.992
6619.5255,7031.157
6620.1676,7279.554
6620.8097,7067.887
6621.4519,7112.051
6622.094,7167.483
6622.7362,7064.571
6623.3783,6913.564
6624.0205,7045.943
6624.6626,6992.552
6625.3048,7025.116
6625.9469,6931.494
6626.5891,6769.178
6627.2312,6772.001
6627.8734,6668.395
6628.5155,6769.019
6629.1577,6849.581
6629.7998,6803.922
6630.442,6969.108
6631.0841,6788.264
6631.7262,6861.655
6632.3684,6730.646
6633.0105,6570.991
6633.6527,6581.414
6634.2948,6660.051
6634.937,6795.628
6635.5791,6907.595
6636.2213,6582.054
6636.8634,6710.229
6637.5056,6710.519
6638.1477,6733.261
6638.7899,6771.24
6639.432,6473.856
6640.0742,6782.524
6640.7163,7004.507
6641.3585,6821.72
6642.0006,6643.154
6642.6428,6703.977
6643.2849,6827.303
6643.927,6936.452
6644.5692,6756.873
6645.2113,6785.444
6645.8535,6715.387
6646.4956,6624.964
6647.1378,6692.298
6647.7799,6631.965
6648.4221,6634.222
6649.0642,6741.247
6649.7064,6863.035
6650.3485,6810.187
6650.9907,6822.886
6651.6328,6762.79
6652.275,6828.269
6652.9171,6853.084
6653.5593,6781.652
6654.2014,6696.123
6654.8436,6682.574
6655.4857,6737.788
6656.1278,6771.978
6656.77,6717.967
6657.4121,6676.362
6658.0543,6538.545
6658.6964,6744.159
6659.3386,6930.339
6659.9807,6757.576
6660.6229,6729.199
6661.265,6829.495
6661.9072,6414.496
6662.5493,6469.907
6663.1915,6549.616
6663.8336,6665.024
6664.4758,6305.019
6665.1179,6499.373
6665.7601,6593.339
6666.4022,6426.139
6667.0443,6398.979
6667.6865,6476.95
6668.3286,6693.795
6668.9708,6671.52
6669.6129,6535.315
6670.2551,6482.418
6670.8972,6468.758
6671.5394,6544.401
6672.1815,6606.218
6672.8237,6739.53
6673.4658,6562.941
6674.108,6644.923
6674.7501,6719.775
6675.3923,6885.594
6676.0344,6717.133
6676.6766,6585.797
6677.3187,6336.993
6677.9609,6594.167
6678.603,6299.838
6679.2451,6364.447
6679.8873,6409.475
6680.5294,6485.007
6681.1716,6215.796
6681.8137,6207.744
6682.4559,6313.81
6683.098,6451.678
6683.7402,6354.82
6684.3823,6427.522
6685.0245,6416.32
6685.6666,6458.012
6686.3088,6744.273
6686.9509,6672.755
6687.5931,6628.6
6688.2352,6643.008
6688.8774,6576.205
6689.5195,6467.964
6690.1616,6605.402
6690.8038,6704.243
6691.4459,6562.875
6692.0881,6557.525
6692.7302,6475.95
6693.3724,6527.426
6694.0145,6520.64
6694.6567,6426.965
6695.2988,6443.499
6695.941,6438.243
6696.5831,6495.671
6697.2253,6491.309
6697.8674,6321.93
6698.5096,6315.686
6699.1517,6371.502
6699.7939,6223.07
6700.436,6261.114
6701.0782,6233.532
6701.7203,6294.265
6702.3624,6330.109
6703.0046,6269.151
6703.6467,6336.1
6704.2889,6228.587
6704.931,6322.396
6705.5732,6189.021
6706.2153,6187.675
6706.8575,6393.12
6707.4996,6339.116
6708.1418,6203.381
6708.7839,6100.899
6709.4261,6322.361
6710.0682,6412.455
6710.7104,6416.66
6711.3525,6371.343
6711.9947,6287.032
6712.6368,6446.151
6713.279,6487.294
6713.9211,6390.044
6714.5632,6298.532
6715.2054,6054.7
6715.8475,6216.318
6716.4897,5922.862
6717.1318,5665.765
6717.774,5829.325
6718.4161,5808.611
6719.0583,5713.08
6719.7004,5887.221
6720.3426,5887.88
6720.9847,5872.637
6721.6269,5892.445
6722.269,6204.371
6722.9112,6313.277
6723.5533,6202.278
6724.1955,6187.828
6724.8376,6187.255
6725.4797,6219.647
6726.1219,5968.844
6726.764,6001.036
6727.4062,6326.373
6728.0483,6052.857
6728.6905,6105.815
6729.3326,6148.396
6729.9748,6391.008
6730.6169,6104.402
6731.2591,6299.658
6731.9012,6267.315
6732.5434,6136.565
6733.1855,6122.031
6733.8277,5987.434
6734.4698,6030.47
6735.112,6182.973
6735.7541,6168.272
6736.3963,5929.079
6737.0384,6136.95
6737.6805,6228.462
6738.3227,6099.305
6738.9648,6115.88
6739.607,6128.055
6740.2491,6323.984
6740.8913,6123.479
6741.5334,5974.237
6742.1756,6088.878
6742.8177,6107.026
6743.4599,6194.602
6744.102,6183.996
6744.7442,6034.448
6745.3863,5981.513
6746.0285,6018.035
6746.6706,6085.075
6747.3128,5984.834
6747.9549,6039.637
6748.597,5978.381
6749.2392,5830.792
6749.8813,5982.908
6750.5235,6169.921
6751.1656,5913.234
6751.8078,5929.581
6752.4499,5933.398
6753.0921,5673.278
6753.7342,6024.053
6754.3764,6041.499
6755.0185,5956.185
6755.6607,6004.877
6756.3028,5978.432
6756.945,5925.953
6757.5871,5933.841
6758.2293,5865.692
6758.8714,5990.26
6759.5136,6014.729
6760.1557,5889.624
6760.7978,6112.811
6761.44,5990.181
6762.0821,6020.309
6762.7243,6185.922
6763.3664,6077.021
6764.0086,6021.568
6764.6507,6099.414
6765.2929,6156.501
6765.935,6185.508
6766.5772,6302.275
6767.2193,6306.999
6767.8615,6287.415
6768.5036,6172.625
6769.1458,5980.794
6769.7879,5694.251
6770.4301,5842.599
6771.0722,5938.704
6771.7144,5931.248
6772.3565,5899.055
6772.9986,6073.725
6773.6408,6079.312
6774.2829,6178.611
6774.9251,6193.728
6775.5672,5787.351
6776.2094,5694.423
6776.8515,6025.609
6777.4937,5989.739
6778.1358,6071.486
6778.778,6152.279
6779.4201,6180.583
6780.0623,6003.905
6780.7044,5890.775
6781.3466,5991.945
6781.9887,5959.008
6782.6309,5878.659
6783.273,5922.923
6783.9151,5803.753
6784.5573,5722.191
6785.1994,5916.081
6785.8416,5672.382
6786.4837,5689.733
6787.1259,5826.614
6787.768,5696.972
6788.4102,5752.774
6789.0523,5955.616
6789.6945,5977.035
6790.3366,5908.938
6790.9788,5753.281
6791.6209,5890.455
6792.2631,5855.961
6792.9052,5893.905
6793.5474,5780.424
6794.1895,6012.852
6794.8317,5988.8
6795.4738,5756.579
6796.1159,5787.726
6796.7581,5913.75
6797.4002,5558.063
6798.0424,5529.875
6798.6845,5419.723
6799.3267,5616.651
6799.9688,5873.399
6800.611,5885.68
6801.2531,5829.629
6801.8953,5874.315
6802.5374,5863.719
6803.1796,5826.371
6803.8217,5833.511
6804.4639,5877.717
6805.106,5846.559
6805.7482,5930.459
6806.3903,5749.681
6807.0325,5759.138
6807.6746,5668.239
6808.3167,5915.675
6808.9589,5605.815
6809.601,5832.123
6810.2432,5712.577
6810.8853,5709.737
6811.5275,5795.186
6812.1696,5892.166
6812.8118,5769.535
6813.4539,5951.337
6814.0961,5803.173
6814.7382,5828.165
6815.3804,5533.773
6816.0225,5707.947
6816.6647,6074.062
6817.3068,5730.557
6817.949,5759.506
6818.5911,5674.727
6819.2332,5782.466
6819.8754,5734.921
6820.5175,5904.536
6821.1597,5852.714
6821.8018,5913.536
6822.444,5974.53
6823.0861,5743.554
6823.7283,5730.323
6824.3704,5766.442
6825.0126,5692.094
6825.6547,5702.661
6826.2969,5455.68
6826.939,5499.854
6827.5812,5622.4
6828.2233,5618.412
6828.8655,5689.846
6829.5076,5705.178
6830.1498,5570.965
6830.7919,5562.198
6831.434,5778.944
6832.0762,5686.475
6832.7183,5790.157
6833.3605,5832.434
6834.0026,5543.65
6834.6448,5604.264
6835.2869,5593.924
6835.9291,5565.268
6836.5712,5527.776
6837.2134,5592.485
6837.8555,5768.115
6838.4977,5433.614
6839.1398,5389.626
6839.782,5569.136
6840.4241,5523.113
6841.0663,5565.194
6841.7084,5750.189
6842.3505,5521.624
6842.9927,5336.418
6843.6348,5200.277
6844.277,5155.922
6844.9191,5416.656
6845.5613,5327.003
6846.2034,5246.164
6846.8456,5387.223
6847.4877,5460.515
6848.1299,5456.102
6848.772,5412.247
6849.4142,5378.484
6850.0563,5354.246
6850.6985,5441.438
6851.3406,5425.658
6851.9828,5467.353
6852.6249,5591.742
6853.2671,5418.543
6853.9092,5342.829
6854.5513,5413.03
6855.1935,5265.975
6855.8356,5380.229
6856.4778,5328.321
6857.1199,5392.902
6857.7621,5382.689
6858.4042,5244.09
6859.0464,5491.136
6859.6885,5371.166
6860.3307,5226.685
6860.9728,5329.485
6861.615,5274.256
6862.2571,5247.915
6862.8993,5216.396
6863.5414,5318.925
6864.1836,5271.363
6864.8257,5090.582
6865.4679,4706.502
6866.11,4671.111
6866.7521,4887.836
6867.3943,4826.362
6868.0364,4457.748
6868.6786,4283.253
6869.3207,3969.571
6869.9629,3534.969
6870.605,3440.912
6871.2472,3601.569
6871.8893,3705.373
6872.5315,3832.382
6873.1736,3874.331
6873.8158,3953.416
6874.4579,4054.843
6875.1001,4061.198
6875.7422,4039.264
6876.3844,4140.476
6877.0265,4197.041
6877.6686,4418.033
6878.3108,4577.134
6878.9529,4586.848
6879.5951,4653.035
6880.2372,4656.103
6880.8794,4770.134
6881.5215,4873.071
6882.1637,4809.108
6882.8058,4842.713
6883.448,4896.851
6884.0901,4999.436
6884.7323,4953.109
6885.3744,4834.338
6886.0166,4738.309
6886.6587,4508.186
6887.3009,4607.627
6887.943,4654.192
6888.5852,4543.781
6889.2273,4506.207
6889.8694,4590.761
6890.5116,4761.769
6891.1537,4668.117
6891.7959,4723.877
6892.438,4667.473
6893.0802,4678.339
6893.7223,4870.509
6894.3645,4637.761
6895.0066,4342.23
6895.6488,4647.944
6896.2909,4736.545
6896.9331,4823.324
6897.5752,4851.195
6898.2174,4645.664
6898.8595,4645.848
6899.5017,4747.082
6900.1438,4746.479
6900.7859,4990.431
6901.4281,5021.263
6902.0702,4749.568
6902.7124,4659.68
6903.3545,4780.763
6903.9967,4832.909
6904.6388,4997.984
6905.281,5180.364
6905.9231,4526.875
6906.5653,3585.533
6907.2074,4238.918
6907.8496,4931.61
6908.4917,5224.811
6909.1339,5249.499
6909.776,5119.621
6910.4182,4962.215
6911.0603,4812.12
6911.7025,4659.867
6912.3446,4680.004
6912.9867,4853.889
6913.6289,5062.851
6914.271,5014.206
6914.9132,5103.359
6915.5553,4827.497
6916.1975,4945.357
6916.8396,4940.212
6917.4818,4914.109
6918.1239,4905.92
6918.7661,4884.841
6919.4082,4911.869
6920.0504,4987.878
6920.6925,4866.582
6921.3347,4762.004
6921.9768,5086.085
6922.619,5047.362
6923.2611,5177.372
6923.9033,5188.596
6924.5454,5313.504
6925.1875,5042.949
6925.8297,4852.937
6926.4718,4837.316
6927.114,4885.063
6927.7561,4939.894
6928.3983,4828.948
6929.0404,4936.383
6929.6826,4941.44
6930.3247,4886.789
6930.9669,4942.495
6931.609,5068.947
6932.2512,5240.276
6932.8933,5100.933
6933.5355,5282.564
6934.1776,5405.229
6934.8198,5238.64
6935.4619,5120.463
6936.104,5139.987
6936.7462,5252.356
6937.3883,5253.005
6938.0305,5248.35
6938.6726,5153.006
6939.3148,5067.535
6939.9569,5101.742
6940.5991,5155.78
6941.2412,4969.424
6941.8834,4916.827
6942.5255,5068.639
6943.1677,5168.204
6943.8098,5256.84
6944.452,5014.791
6945.0941,5163.547
6945.7363,5265.369
6946.3784,5163.525
6947.0206,5100.941
6947.6627,5148.617
