wavelength,flux
4989.4267,4071.612
4990.0687,4071.645
4990.7108,4071.678
4991.3529,4071.711
4991.995,4027.793
4992.6371,4077.893
4993.2792,4021.687
4993.9213,3968.794
4994.5634,3873.315
4995.2055,3967.592
4995.8476,4124.986
4996.4897,4191.613
4997.1318,4186.447
4997.7739,4147.213
4998.416,4128.526
4999.0581,3981.924
4999.7002,4035.926
5000.3423,4097.343
5000.9844,3904.218
5001.6265,4013.476
5002.2686,3782.572
5002.9107,3743.08
5003.5528,3600.766
5004.1949,3728.071
5004.837,3791.03
5005.4791,3760.956
5006.1212,3630.22
5006.7633,3773.943
5007.4054,3735.031
5008.0475,3666.26
5008.6895,3535.249
5009.3316,3469.171
5009.9737,3511.43
5010.6158,3647.893
5011.2579,3740.231
5011.9,3826.432
5012.5421,3904.474
5013.1842,3830.773
5013.8263,3725.948
5014.4684,3778.992
5015.1105,3717.596
5015.7526,3606.862
5016.3947,3570.521
5017.0368,3330.3
5017.6789,3518.455
5018.321,3599.639
5018.9631,3512.944
5019.6052,3819.334
5020.2473,3784.72
5020.8894,3727.7
5021.5315,3699.523
5022.1736,3727.642
5022.8157,3823.471
5023.4578,3892.227
5024.0999,3849.999
5024.742,3872.698
5025.3841,3892.601
5026.0262,3778.005
5026.6683,3691.879
5027.3103,3742.904
5027.9524,3813.036
5028.5945,3886.732
5029.2366,4047.884
5029.8787,4057.928
5030.5208,3915.813
5031.1629,3784.327
5031.805,4042.429
5032.4471,4156.159
5033.0892,4267.012
5033.7313,4399.886
5034.3734,4409.794
5035.0155,4268.155
5035.6576,4315.509
5036.2997,4312.218
5036.9418,4262.172
5037.5839,4224.218
5038.226,4136.918
5038.8681,4018.538
5039.5102,3881.219
5040.1523,3687.501
5040.7944,3668.257
5041.4365,3804.334
5042.0786,3581.146
5042.7207,3530.134
5043.3628,3422.85
5044.0049,3463.427
5044.647,3639.249
5045.2891,3647.957
5045.9311,3653.457
5046.5732,4248.083
5047.2153,4158.759
5047.8574,4123.825
5048.4995,4298.001
5049.1416,4247.341
5049.7837,4291.562
5050.4258,4308.568
5051.0679,4273.029
5051.71,4069.654
5052.3521,3886.186
5052.9942,3899.898
5053.6363,3993.602
5054.2784,4099.727
5054.9205,4151.501
5055.5626,4109.635
5056.2047,4137.104
5056.8468,4295.823
5057.4889,4241.494
5058.131,4249.03
5058.7731,4646.305
5059.4152,4566.978
5060.0573,4507.735
5060.6994,4557.334
5061.3415,4609.827
5061.9836,4545.43
5062.6257,4573.891
5063.2678,4489.373
5063.9099,4496.149
5064.5519,4314.519
5065.194,4302.267
5065.8361,4377.019
5066.4782,4303.242
5067.1203,4129.26
5067.7624,4087.054
5068.4045,3987.529
5069.0466,3763.82
5069.6887,3848.975
5070.3308,4028.716
5070.9729,4016.698
5071.615,4088.625
5072.2571,4023.656
5072.8992,3915.578
5073.5413,3940.657
5074.1834,4103.905
5074.8255,4262.95
5075.4676,4043.097
5076.1097,4147.599
5076.7518,4258.095
5077.3939,4434.736
5078.036,4339.167
5078.6781,4350.455
5079.3202,4182.866
5079.9623,3989.231
5080.6044,3952.968
5081.2465,3865.225
5081.8886,3879.412
5082.5307,3779.146
5083.1727,3601.925
5083.8148,3678.213
5084.4569,3789.879
5085.099,3907.444
5085.7411,3923.668
5086.3832,4105.879
5087.0253,4067.848
5087.6674,4025.706
5088.3095,4403.476
5088.9516,4463.747
5089.5937,4482.167
5090.2358,4360.833
5090.8779,4235.622
5091.52,4410.272
5092.1621,4444.75
5092.8042,4545.751
5093.4463,4541.362
5094.0884,4473.387
5094.7305,4525.025
5095.3726,4613.624
5096.0147,4666.335
5096.6568,4733.14
5097.2989,4768.184
5097.941,4575.833
5098.5831,4328.71
5099.2252,4278.378
5099.8673,4241.978
5100.5094,4250.993
5101.1515,4147.659
5101.7935,4015.59
5102.4356,4178.774
5103.0777,4006.507
5103.7198,3976.528
5104.3619,4066.252
5105.004,4244.546
5105.6461,4381.211
5106.2882,4339.375
5106.9303,4273.963
5107.5724,4068.352
5108.2145,4148.798
5108.8566,4196.227
5109.4987,4146.303
5110.1408,4073.976
5110.7829,4000.269
5111.425,4020.841
5112.0671,3957.341
5112.7092,3982.776
5113.3513,4196.036
5113.9934,4244.251
5114.6355,4291.802
5115.2776,4195.542
5115.9197,4452.75
5116.5618,4446.634
5117.2039,4793.133
5117.846,4703.351
5118.4881,4756.197
5119.1302,4738.607
5119.7723,4654.729
5120.4143,4871.035
5121.0564,4673.481
5121.6985,4725.339
5122.3406,4779.859
5122.9827,4411.708
5123.6248,4383.008
5124.2669,4292.321
5124.909,4227.434
5125.5511,4206.975
5126.1932,4090.321
5126.8353,3980.979
5127.4774,4077.031
5128.1195,4106.392
5128.7616,3946.609
5129.4037,3933.903
5130.0458,3904.729
5130.6879,4128.186
5131.33,4174.838
5131.9721,4233.307
5132.6142,4236.752
5133.2563,4152.62
5133.8984,4274.4
5134.5405,4448.517
5135.1826,4642.006
5135.8247,4620.729
5136.4668,4562.966
5137.1089,4566.853
5137.751,4512.729
5138.3931,4470.696
5139.0351,4483.655
5139.6772,4487.071
5140.3193,4392.616
5140.9614,4307.8
5141.6035,4171.365
5142.2456,4134.478
5142.8877,4211.042
5143.5298,4224.98
5144.1719,4452.331
5144.814,4534.361
5145.4561,4244.567
5146.0982,4083.689
5146.7403,4242.835
5147.3824,4301.128
5148.0245,4223.303
5148.6666,4183.886
5149.3087,4164.86
5149.9508,4100.024
5150.5929,4175.196
5151.235,4170.085
5151.8771,4167.989
5152.5192,4375.073
5153.1613,4298.471
5153.8034,4027.765
5154.4455,4088.029
5155.0876,4123.074
5155.7297,4058.589
5156.3718,4172.795
5157.0138,4369.982
5157.6559,4487.944
5158.298,4548.444
5158.9401,4629.73
5159.5822,4828.551
5160.2243,5067.841
5160.8664,5210.718
5161.5085,5242.707
5162.1506,5053.958
5162.7927,4912.69
5163.4348,4743.127
5164.0769,5013.952
5164.719,4876.986
5165.3611,4669.042
5166.0032,4193.443
5166.6453,4008.972
5167.2874,3895.295
5167.9295,3841.168
5168.5716,3607.719
5169.2137,3358.731
5169.8558,3211.065
5170.4979,3128.571
5171.14,3026.659
5171.7821,2910.223
5172.4242,2963.65
5173.0663,3136.873
5173.7084,3174.813
5174.3505,3191.68
5174.9926,3219.714
5175.6346,3201.539
5176.2767,3034.108
5176.9188,3295.346
5177.5609,3606.091
5178.203,4031.32
5178.8451,4217.495
5179.4872,4206.267
5180.1293,4212.89
5180.7714,4214.374
5181.4135,4060.973
5182.0556,3800.175
5182.6977,3649.92
5183.3398,3600.386
5183.9819,3450.886
5184.624,3224.499
5185.2661,3149.315
5185.9082,3171.336
5186.5503,3118.303
5187.1924,3178.166
5187.8345,3450.372
5188.4766,3814.945
5189.1187,4234.117
5189.7608,4598.73
5190.4029,4671.645
5191.045,4640.414
5191.6871,4625.623
5192.3292,4494.159
5192.9713,4622.599
5193.6134,4664.529
5194.2554,4576.994
5194.8975,4570.665
5195.5396,3995.85
5196.1817,4264.925
5196.8238,4639.676
5197.4659,4765.151
5198.108,4922.404
5198.7501,4986.296
5199.3922,5051.187
5200.0343,4936.026
5200.6764,5185.763
5201.3185,5301.325
5201.9606,5291.823
5202.6027,5252.971
5203.2448,5148.448
5203.8869,5168.39
5204.529,5088.945
5205.1711,4681.524
5205.8132,4395.719
5206.4553,4376.645
5207.0974,4138.138
5207.7395,3805.553
5208.3816,3679.739
5209.0237,3501.989
5209.6658,3670.243
5210.3079,3913.82
5210.95,3980.689
5211.5921,4064.7
5212.2342,4127.67
5212.8762,4312.93
5213.5183,4764.732
5214.1604,5105.092
5214.8025,5357.661
5215.4446,5698.771
5216.0867,5747.09
5216.7288,5661.894
5217.3709,5589.688
5218.013,5655.991
5218.6551,5647.152
5219.2972,5462.876
5219.9393,5469.934
5220.5814,5668.18
5221.2235,5769.445
5221.8656,5894.292
5222.5077,6110.634
5223.1498,6153.122
5223.7919,5987.088
5224.434,5848.644
5225.0761,6019.164
5225.7182,5864.407
5226.3603,5191.125
5227.0024,5334.051
5227.6445,4915.958
5228.2866,4803.693
5228.9287,4842.389
5229.5708,4935.247
5230.2129,4987.464
5230.855,5120.741
5231.497,5317.779
5232.1391,5621.036
5232.7812,5711.591
5233.4233,5708.809
5234.0654,5804.296
5234.7075,5780.682
5235.3496,5655.231
5235.9917,5555.645
5236.6338,5442.926
5237.2759,5609.883
5237.918,5989.11
5238.5601,6277.362
5239.2022,6316.942
5239.8443,6500.273
5240.4864,6314.654
5241.1285,6391.344
5241.7706,6451.346
5242.4127,6407.491
5243.0548,6263.8
5243.6969,6519.624
5244.339,6365.25
5244.9811,6514.601
5245.6232,6412.082
5246.2653,6132.56
5246.9074,6366.813
5247.5495,6300.659
5248.1916,6091.076
5248.8337,6020.265
5249.4758,6016.954
5250.1178,5949.189
5250.7599,5785.672
5251.402,5804.995
5252.0441,5920.041
5252.6862,5858.443
5253.3283,5833.671
5253.9704,5825.603
5254.6125,5908.019
5255.2546,6111.125
5255.8967,6141.021
5256.5388,6273.862
5257.1809,6168.979
5257.823,6189.325
5258.4651,6231.309
5259.1072,6475.764
5259.7493,6425.135
5260.3914,6765.8
5261.0335,6762.209
5261.6756,6510.307
5262.3177,6520.502
5262.9598,6290.127
5263.6019,5832.345
5264.244,5589.089
5264.8861,5466.784
5265.5282,5105.621
5266.1703,4761.452
5266.8124,4573.617
5267.4545,3541.651
5268.0966,3264.996
5268.7386,4411.534
5269.3807,4346.813
5270.0228,4386.109
5270.6649,4490.232
5271.307,4687.543
5271.9491,4624.993
5272.5912,4512.129
5273.2333,4487.499
5273.8754,4777.501
5274.5175,5061.861
5275.1596,5402.582
5275.8017,5747.384
5276.4438,5846.017
5277.0859,6121.914
5277.728,6044.756
5278.3701,6199.743
5279.0122,6272.848
5279.6543,6183.172
5280.2964,6534.498
5280.9385,6627.446
5281.5806,6690.655
5282.2227,6570.598
5282.8648,6497.316
5283.5069,6417.577
5284.149,6219.403
5284.7911,6124.765
5285.4332,6169.918
5286.0753,6211.976
5286.7174,6136.395
5287.3594,6379.397
5288.0015,6321.999
5288.6436,6650.076
5289.2857,7120.914
5289.9278,7166.407
5290.5699,7294.454
5291.212,7522.104
5291.8541,7152.795
5292.4962,7126.514
5293.1383,6973.71
5293.7804,7273.437
5294.4225,7318.342
5295.0646,7118.813
5295.7067,7138.793
5296.3488,6987.993
5296.9909,6744.375
5297.633,6437.12
5298.2751,6396.957
5298.9172,6314.592
5299.5593,5973.329
5300.2014,5750.743
5300.8435,5705.588
5301.4856,5716.025
5302.1277,5792.13
5302.7698,6003.551
5303.4119,6332.522
5304.054,6590.251
5304.6961,6729.565
5305.3382,6603.448
5305.9802,6825.826
5306.6223,6922.779
5307.2644,7211.483
5307.9065,7255.55
5308.5486,7264.456
5309.1907,7514.787
5309.8328,7070.649
5310.4749,7238.267
5311.117,7258.141
5311.7591,7417.404
5312.4012,7398.01
5313.0433,7427.578
5313.6854,7355.392
5314.3275,7461.444
5314.9696,7415.302
5315.6117,7388.431
5316.2538,7322.995
5316.8959,7230.392
5317.538,7241.925
5318.1801,7289.197
5318.8222,7273.588
5319.4643,7183.744
5320.1064,7277.73
5320.7485,7330.793
5321.3906,7150.729
5322.0327,7240.93
5322.6748,7122.654
5323.3169,6826.821
5323.959,6649.272
5324.601,6750.133
5325.2431,6838.649
5325.8852,6461.486
5326.5273,6306.576
5327.1694,5898.298
5327.8115,5738.638
5328.4536,5558.908
5329.0957,5700.006
5329.7378,5711.4
5330.3799,5614.998
5331.022,5540.094
5331.6641,5303.905
5332.3062,5585.407
5332.9483,5924.507
5333.5904,6375.701
5334.2325,6865.019
5334.8746,7037.064
5335.5167,7129.722
5336.1588,7204.99
5336.8009,7113.529
5337.443,7183.169
5338.0851,7357.082
5338.7272,7405.079
5339.3693,7261.522
5340.0114,7099.933
5340.6535,7165.967
5341.2956,7010.275
5341.9377,6706.518
5342.5798,6497.144
5343.2218,6592.732
5343.8639,6451.865
5344.506,6399.462
5345.1481,6515.773
5345.7902,6929.947
5346.4323,7164.478
5347.0744,6807.453
5347.7165,6855.961
5348.3586,6783.222
5349.0007,6816.843
5349.6428,6777.084
5350.2849,6910.656
5350.927,7112.924
5351.5691,7115.956
5352.2112,6969.094
5352.8533,7007.113
5353.4954,7229.039
5354.1375,7447.697
5354.7796,7729.484
5355.4217,7864.771
5356.0638,7802.285
5356.7059,7789.243
5357.348,7742.461
5357.9901,7755.844
5358.6322,7899.585
5359.2743,7966.563
5359.9164,7785.498
5360.5585,7967.852
5361.2006,8169.219
5361.8426,7983.389
5362.4847,8146.236
5363.1268,7812.304
5363.7689,7810.631
5364.411,7686.548
5365.0531,7558.806
5365.6952,7559.562
5366.3373,7518.036
5366.9794,7538.837
5367.6215,7373.187
5368.2636,7212.956
5368.9057,6998.026
5369.5478,6907.478
5370.1899,6967.735
5370.832,6814.704
5371.4741,6630.182
5372.1162,6694.64
5372.7583,6627.057
5373.4004,6331.072
5374.0425,6104.771
5374.6846,6298.443
5375.3267,6579.936
5375.9688,6941.021
5376.6109,7281.967
5377.253,7525.077
5377.8951,7842.056
5378.5372,7971.081
5379.1793,7843.704
5379.8214,7839.368
5380.4634,7813.505
5381.1055,8088.189
5381.7476,7914.685
5382.3897,7933.777
5383.0318,7918.844
5383.6739,7765.536
5384.316,7612.424
5384.9581,7669.181
5385.6002,7716.125
5386.2423,7573.892
5386.8844,7631.302
5387.5265,7626.99
5388.1686,7633.447
5388.8107,7875.528
5389.4528,7900.057
5390.0949,7734.918
5390.737,7658.194
5391.3791,7554.273
5392.0212,7494.622
5392.6633,7513.2
5393.3054,7279.606
5393.9475,7235.515
5394.5896,7242.301
5395.2317,7165.458
5395.8738,7018.743
5396.5159,6833.362
5397.158,6529.476
5397.8001,6831.638
5398.4422,6840.512
5399.0842,6954.905
5399.7263,6838.81
5400.3684,6804.354
5401.0105,6899.517
5401.6526,6858.308
5402.2947,7179.658
5402.9368,7253.865
5403.5789,7364.307
5404.221,7251.488
5404.8631,6972.64
5405.5052,6883.492
5406.1473,6934.817
5406.7894,6983.586
5407.4315,6701.687
5408.0736,6312.201
5408.7157,6193.718
5409.3578,6232.087
5409.9999,6453.365
5410.642,6655.922
5411.2841,6948.529
5411.9262,7112.12
5412.5683,7215.018
5413.2104,7136.738
5413.8525,7205.049
5414.4946,7136.877
5415.1367,7332.563
5415.7788,7751.108
5416.4209,7924.347
5417.063,8155.661
5417.705,8247.809
5418.3471,7908.576
5418.9892,7725.019
5419.6313,7811.445
5420.2734,8318.814
5420.9155,8215.854
5421.5576,8348.541
5422.1997,8204.822
5422.8418,8005.493
5423.4839,7929.746
5424.126,7814.115
5424.7681,7746.965
5425.4102,7923.312
5426.0523,8047.414
5426.6944,7904.608
5427.3365,7714.953
5427.9786,7634.796
5428.6207,7628.74
5429.2628,7592.881
5429.9049,7621.588
5430.547,7805.949
5431.1891,7722.883
5431.8312,7486.774
5432.4733,7158.153
5433.1154,6770.926
5433.7575,6578.656
5434.3996,6969.617
5435.0417,7162.362
5435.6837,7242.787
5436.3258,7107.988
5436.9679,7164.449
5437.61,7031.829
5438.2521,7190.191
5438.8942,7604.717
5439.5363,7846.858
5440.1784,7885.134
5440.8205,8190.146
5441.4626,8362.66
5442.1047,8572.791
5442.7468,8584.724
5443.3889,8644.89
5444.031,8583.258
5444.6731,8460.234
5445.3152,8313.756
5445.9573,8050.754
5446.5994,7881.04
5447.2415,7782.854
5447.8836,7527.74
5448.5257,7263.53
5449.1678,7209.452
5449.8099,6933.715
5450.452,6775.875
5451.0941,7251.141
5451.7362,7463.189
5452.3783,7889.892
5453.0204,8337.559
5453.6625,8301.103
5454.3045,8104.638
5454.9466,7837.009
5455.5887,7725.917
5456.2308,7572.791
5456.8729,7529.298
5457.515,7478.778
5458.1571,7253.316
5458.7992,7291.874
5459.4413,7354.249
5460.0834,7379.369
5460.7255,7750.831
5461.3676,8150.189
5462.0097,8026.542
5462.6518,7960.136
5463.2939,7885.963
5463.936,7912.421
5464.5781,7824.836
5465.2202,7663.374
5465.8623,7629.646
5466.5044,7583.224
5467.1465,7626.273
5467.7886,7792.305
5468.4307,8035.895
5469.0728,8147.045
5469.7149,8058.068
5470.357,8107.014
5470.9991,8106.696
5471.6412,8267.675
5472.2833,8193.582
5472.9253,8096.911
5473.5674,8087.219
5474.2095,7977.784
5474.8516,8046.352
5475.4937,8012.056
5476.1358,7871.324
5476.7779,7570.474
5477.42,7631.658
5478.0621,7502.334
5478.7042,7593.526
5479.3463,7463.179
5479.9884,7444.442
5480.6305,7234.896
5481.2726,7248.572
5481.9147,7491.97
5482.5568,7878.215
5483.1989,8015.277
5483.841,7932.798
5484.4831,7818.639
5485.1252,7672.437
5485.7673,7792.37
5486.4094,8072.013
5487.0515,8256.583
5487.6936,8301.666
5488.3357,8230.896
5488.9778,8328.514
5489.6199,8297.273
5490.262,8238.423
5490.9041,8178.569
5491.5461,8309.853
5492.1882,8044.295
5492.8303,8191.759
5493.4724,8264.606
5494.1145,8216.521
5494.7566,8268.512
5495.3987,8401.763
5496.0408,8455.371
5496.6829,8300.252
5497.325,8114.723
5497.9671,8169.381
5498.6092,8253.811
5499.2513,8212.261
5499.8934,8397.338
5500.5355,8097.698
5501.1776,7881.499
5501.8197,8040.391
5502.4618,8264.275
5503.1039,8378.096
5503.746,8292.952
5504.3881,8122.433
5505.0302,7804.601
5505.6723,7797.188
5506.3144,8100.881
5506.9565,8114.783
5507.5986,7995.244
5508.2407,7982.688
5508.8828,7891.924
5509.5249,7885.094
5510.1669,8058.592
5510.809,8039.095
5511.4511,8050.466
5512.0932,8208.238
5512.7353,8083.782
5513.3774,7894.483
5514.0195,7925.174
5514.6616,7728.456
5515.3037,7818.022
5515.9458,7684.744
5516.5879,7360.863
5517.23,7621.182
5517.8721,7877.022
5518.5142,7958.558
5519.1563,7953.485
5519.7984,8221.905
5520.4405,8392.826
5521.0826,8430.239
5521.7247,8707.563
5522.3668,8821.934
5523.0089,8929.819
5523.651,8711.976
5524.2931,8652.577
5524.9352,8696.256
5525.5773,8789.211
5526.2194,8601.324
5526.8615,8461.146
5527.5036,8468.104
5528.1457,8270.174
5528.7877,8101.492
5529.4298,8155.175
5530.0719,8016.968
5530.714,7886.206
5531.3561,7896.805
5531.9982,7705.813
5532.6403,7710.402
5533.2824,8192.361
5533.9245,8584.84
5534.5666,8542.603
5535.2087,8598.496
5535.8508,8647.422
5536.4929,8704.227
5537.135,8558.223
5537.7771,8539.896
5538.4192,8415.217
5539.0613,8244.023
5539.7034,8573.984
5540.3455,8603.027
5540.9876,8559.565
5541.6297,8511.168
5542.2718,8773.973
5542.9139,8553.029
5543.556,8682.84
5544.1981,8811.171
5544.8402,8833.088
5545.4823,8805.961
5546.1244,8656.711
5546.7665,8511.629
5547.4085,8366.994
5548.0506,8471.644
5548.6927,8729.533
5549.3348,8842.438
5549.9769,8748.472
5550.619,8708.625
5551.2611,8795.038
5551.9032,8976.846
5552.5453,9022.855
5553.1874,8898.765
5553.8295,8883.868
5554.4716,8936.364
5555.1137,8972.751
5555.7558,8971.377
5556.3979,8828.724
5557.04,8867.349
5557.6821,8738.878
5558.3242,8509.043
5558.9663,8670.324
5559.6084,8842.36
5560.2505,8604.938
5560.8926,8654.912
5561.5347,8600.706
5562.1768,8837.2
5562.8189,8615.789
5563.461,8539.028
5564.1031,8647.382
5564.7452,8560.564
5565.3873,8428.104
5566.0293,8246.445
5566.6714,8077.319
5567.3135,8043.274
5567.9556,8230.736
5568.5977,8226.39
5569.2398,8002.297
5569.8819,7996.313
5570.524,8051.743
5571.1661,8180.675
5571.8082,8159.769
5572.4503,8163.453
5573.0924,8018.044
5573.7345,7786.228
5574.3766,8012.772
5575.0187,8292.131
5575.6608,8270.624
5576.3029,8194.578
5576.945,8021.02
5577.5871,8127.424
5578.2292,8542.145
5578.8713,8727.042
5579.5134,8590.424
5580.1555,8567.381
5580.7976,8559.411
5581.4397,8740.591
5582.0818,8779.287
5582.7239,8581.956
5583.366,8367.352
5584.0081,8658.094
5584.6501,8566.255
5585.2922,8236.059
5585.9343,8110.764
5586.5764,8241.472
5587.2185,7996.765
5587.8606,8088.69
5588.5027,8009.914
5589.1448,7617.496
5589.7869,7228.031
5590.429,7270.584
5591.0711,7112.438
5591.7132,7139.107
5592.3553,7374.755
5592.9974,7517.653
5593.6395,7548.607
5594.2816,7831.593
5594.9237,7964.853
5595.5658,8122.269
5596.2079,8042.667
5596.85,7902.493
5597.4921,7965.057
5598.1342,7935.044
5598.7763,7931.234
5599.4184,8169.133
5600.0605,8309.328
5600.7026,8140.85
5601.3447,8049.992
5601.9868,8019.636
5602.6289,7775.791
5603.2709,7786.317
5603.913,7915.423
5604.5551,7908.172
5605.1972,7718.985
5605.8393,8108.73
5606.4814,8283.044
5607.1235,8333.759
5607.7656,8516.212
5608.4077,9223.436
5609.0498,9216.07
5609.6919,9061.561
5610.334,9078.969
5610.9761,9384.028
5611.6182,9177.846
5612.2603,8888.859
5612.9024,8824.607
5613.5445,9065.759
5614.1866,8750.801
5614.8287,8750.531
5615.4708,8633.51
5616.1129,8414.716
5616.755,8403.154
5617.3971,8137.738
5618.0392,7997.612
5618.6813,7835.641
5619.3234,7535.822
5619.9655,7595.19
5620.6076,7935.632
5621.2497,8174.669
5621.8917,8316.848
5622.5338,8488.396
5623.1759,8583.9
5623.818,8494.533
5624.4601,8424.059
5625.1022,8440.357
5625.7443,8469.508
5626.3864,8608.235
5627.0285,8399.926
5627.6706,8102.218
5628.3127,8089.894
5628.9548,8072.057
5629.5969,8494.338
5630.239,8696.119
5630.8811,8516.022
5631.5232,8893.102
5632.1653,8933.414
5632.8074,8811.219
5633.4495,8891.388
5634.0916,8926.579
5634.7337,9214.154
5675.1858,8844.322
5675.8279,9012.268
5676.47,8967.683
5677.1121,8945.918
5677.7541,8975.714
5678.3962,8892.73
5679.0383,8910.672
5679.6804,8996.664
5680.3225,9141.52
5680.9646,9104.263
5681.6067,9032.467
5682.2488,8989.291
5682.8909,8800.531
5683.533,8469.613
5684.1751,8632.527
5684.8172,8601.803
5685.4593,8280.467
5686.1014,8324.125
5686.7435,8219.547
5687.3856,8523.458
5688.0277,8541.727
5688.6698,8599.111
5689.3119,8554.993
5689.954,8694.594
5690.5961,8413.916
5691.2382,8133.279
5691.8803,8345.393
5692.5224,8755.278
5693.1645,8732.371
5693.8066,8498.301
5694.4487,8973.277
5695.0908,9055.898
5695.7329,8949.165
5696.3749,9071.176
5697.017,9073.676
5697.6591,8850.666
5698.3012,8853.516
5698.9433,8867.633
5699.5854,8772.021
5700.2275,8844.457
5700.8696,8815.735
5701.5117,8723.556
5702.1538,8548.455
5702.7959,8397.445
5703.438,8570.039
5704.0801,8797.772
5704.7222,8670.495
5705.3643,8297.723
5706.0064,8322.128
5706.6485,8555.409
5707.2906,8542.029
5707.9327,8466.041
5708.5748,8364.256
5709.2169,8244.746
5709.859,8158.721
5710.5011,8057.644
5711.1432,7921.351
5711.7853,7895.213
5712.4274,7918.45
5713.0695,7939.255
5713.7116,8068.618
5714.3536,8217.867
5714.9957,8221.257
5715.6378,8188.795
5716.2799,8488.123
5716.922,8586.857
5717.5641,8785.475
5718.2062,9076.588
5718.8483,8957.859
5719.4904,8856.607
5720.1325,8832.088
5720.7746,9295.817
5721.4167,8972.47
5722.0588,8732.814
5722.7009,8971.971
5723.343,9472.063
5723.9851,8945.591
5724.6272,9076.041
5725.2693,8178.365
5725.9114,8652.238
5726.5535,9139.041
5727.1956,9315.445
5727.8377,9044.678
5728.4798,9069.633
5729.1219,9133.743
5729.764,8968.26
5730.4061,8853.855
5731.0482,8692.301
5731.6903,8624.734
5732.3324,8903.545
5732.9744,9095.246
5733.6165,9018.785
5734.2586,8907.94
5734.9007,8911.455
5735.5428,8921.332
5736.1849,8904.858
5736.827,8922.166
5737.4691,9023.674
5738.1112,9081.671
5738.7533,8987.689
5739.3954,9068.457
5740.0375,9074.184
5740.6796,9142.223
5741.3217,9197.612
5741.9638,8994.171
5742.6059,9005.738
5743.248,9048.859
5743.8901,9051.035
5744.5322,9100.036
5745.1743,9022.755
5745.8164,9052.375
5746.4585,9051.813
5747.1006,9079.987
5747.7427,9171.714
5748.3848,9173.008
5749.0269,9284.779
5749.669,9267.579
5750.3111,9325.459
5750.9532,9037.812
5751.5952,9005.917
5752.2373,8814.512
5752.8794,8860.115
5753.5215,8965.238
5754.1636,8946.551
5754.8057,9079.191
5755.4478,8980.746
5756.0899,8985.328
5756.732,8950.48
5757.3741,8666.012
5758.0162,8873.373
5758.6583,8704.137
5759.3004,9049.394
5759.9425,9152.543
5760.5846,9060.958
5761.2267,9028.915
5761.8688,9114.385
5762.5109,8874.832
5763.153,8827.482
5763.7951,8871.641
5764.4372,8545.768
5765.0793,8817.675
5765.7214,8811.652
5766.3635,8751.209
5767.0056,8824.184
5767.6477,9126.588
5768.2898,9196.217
5768.9319,9368.224
5769.574,9326.486
5770.216,9198.509
5770.8581,9130.933
5771.5002,9320.331
5772.1423,9366.734
5772.7844,9369.154
5773.4265,9365.187
5774.0686,9185.52
5774.7107,8927.821
5775.3528,8860.638
5775.9949,8937.564
5776.637,8914.32
5777.2791,8941.737
5777.9212,9033.695
5778.5633,9085.141
5779.2054,9049.019
5779.8475,8921.118
5780.4896,8921.787
5781.1317,8867.49
5781.7738,8974.95
5782.4159,9039.885
5783.058,8788.334
5783.7001,8488.462
5784.3422,8092.568
5784.9843,7926.675
5785.6264,7870.455
5786.2685,8105.979
5786.9106,8281.229
5787.5527,8443.319
5788.1948,8284.105
5788.8368,8294.314
5789.4789,8378.277
5790.121,8412.5
5790.7631,8735.571
5791.4052,8817.875
5792.0473,8860.13
5792.6894,8803.818
5793.3315,8844.702
5793.9736,8944.512
5794.6157,8973.21
5795.2578,8950.393
5795.8999,8860.023
5796.542,9140.241
5797.1841,9455.028
5797.8262,8886.309
5798.4683,9096.27
5799.1104,9448.83
5799.7525,9256.795
5800.3946,9220.012
5801.0367,9124.787
5801.6788,9273.764
5802.3209,9272.532
5802.963,9473.722
5803.6051,9667.629
5804.2472,9380.408
5804.8893,9470.551
5805.5314,9523.878
5806.1735,9526.953
5806.8156,9262.847
5807.4576,9105.273
5808.0997,9088.836
5808.7418,9084.301
5809.3839,8930.885
5810.026,9088.729
5810.6681,9220.814
5811.3102,9268.367
5811.9523,9084.054
5812.5944,8944.749
5813.2365,9052.784
5813.8786,9220.201
5814.5207,9236.715
5815.1628,9280.249
5815.8049,9285.238
5816.447,9167.461
5817.0891,9006.079
5817.7312,8890.812
5818.3733,9077.322
5819.0154,9283.509
5819.6575,9112.757
5820.2996,8965.253
5820.9417,9004.442
5821.5838,9326.298
5822.2259,9366.052
5822.868,9314.794
5823.5101,9361.606
5824.1522,9604.694
5824.7943,9423.764
5825.4364,9287.311
5826.0784,9356.605
5826.7205,9098.97
5827.3626,9209.252
5828.0047,9271.772
5828.6468,9452.059
5829.2889,9428.932
5829.931,9304.181
5830.5731,9318.34
5831.2152,9321.28
5831.8573,9085.092
5832.4994,9277.885
5833.1415,9846.34
5833.7836,9325.846
5834.4257,9235.15
5835.0678,9247.187
5835.7099,9430.034
5836.352,9463.993
5836.9941,9461.442
5837.6362,9329.022
5838.2783,9197.815
5838.9204,9315.621
5839.5625,9149.143
5840.2046,9267.527
5840.8467,9300.979
5841.4888,9087.102
5842.1309,9244.708
5842.773,9156.136
5843.4151,9406.363
5844.0572,9321.693
5844.6992,9240.167
5845.3413,9583.865
5845.9834,9263.533
5846.6255,9437.122
5847.2676,9488.153
5847.9097,9070.439
5848.5518,9114.069
5849.1939,9121.508
5849.836,8961.337
5850.4781,9076.604
5851.1202,9199.649
5851.7623,9126.773
5852.4044,8882.367
5853.0465,8969.922
5853.6886,8839.669
5854.3307,8954.264
5854.9728,9107.455
5855.6149,9062.73
5856.257,8746.346
5856.8991,8541.019
5857.5412,8435.779
5858.1833,8233.93
5858.8254,8279.44
5859.4675,8435.635
5860.1096,8428.949
5860.7517,8296.793
5861.3938,8223.549
5862.0359,8537.425
5862.678,8714.865
5863.32,8758.756
5863.9621,8865.686
5864.6042,8763.551
5865.2463,8741.77
5865.8884,8754.21
5866.5305,8775.253
5867.1726,8818.048
5867.8147,8739.401
5868.4568,8894.922
5869.0989,8848.856
5869.741,8736.762
5870.3831,8821.071
5871.0252,8877.313
5871.6673,8839.371
5872.3094,8890.868
5872.9515,8935.534
5873.5936,9077.872
5874.2357,9341.333
5874.8778,9243.843
5875.5199,9024.646
5876.162,9016.686
5876.8041,9026.431
5877.4462,9017.285
5878.0883,8932.348
5878.7304,8913.215
5879.3725,8759.654
5880.0146,8663.27
5880.6567,8495.936
5881.2988,8630.891
5881.9408,8777.693
5882.5829,8576.125
5883.225,8480.95
5883.8671,8501.18
5884.5092,8175.781
5885.1513,8055.642
5885.7934,8206.197
5886.4355,8356.239
5887.0776,7673.206
5887.7197,7452.347
5888.3618,7226.356
5889.0039,6836.809
5889.646,6605.474
5890.2881,6102.552
5890.9302,5809.083
5891.5723,5632.059
5892.2144,5231.485
5892.8565,4989.322
5893.4986,4579.264
5894.1407,4716.695
5894.7828,4704.241
5895.4249,5025.051
5896.067,5056.659
5896.7091,5479.517
5897.3512,5454.442
5897.9933,5755.469
5898.6354,5280.055
5899.2775,5354.076
5899.9196,5501.353
5900.5616,5764.631
5901.2037,6418.551
5901.8458,6982.551
5902.4879,7275.361
5903.13,7893.388
5903.7721,8001.535
5904.4142,8078.693
5905.0563,8374.105
5905.6984,8399.127
5906.3405,8534.25
5906.9826,8384.205
5907.6247,8422.92
5908.2668,8446.377
5908.9089,8626.115
5909.551,8400.359
5910.1931,8338.541
5910.8352,8625.016
5911.4773,8800.368
5912.1194,8846.066
5912.7615,8925.725
5913.4036,8710.431
5914.0457,8448.052
5914.6878,8711.184
5915.3299,8881.84
5915.972,8621.553
5916.6141,8478.297
5917.2562,8409.605
5917.8983,8338.006
5918.5404,8219.103
5919.1824,8221.137
5919.8245,8409.946
5920.4666,8537.359
5921.1087,8612.246
5921.7508,8787.174
5922.3929,8916.575
5923.035,8895.02
5923.6771,8907.185
5924.3192,9139.43
5924.9613,9023.967
5925.6034,8784.404
5926.2455,8680.461
5926.8876,8707.102
5927.5297,8882.786
5928.1718,9168.614
5928.8139,9303.908
5929.456,9034.691
5930.0981,8976.656
5930.7402,8963.275
5931.3823,8830.727
5932.0244,8907.231
5932.6665,8858.046
5933.3086,8730.88
5933.9507,8727.307
5934.5928,8656.072
5935.2349,8616.683
5935.877,8797.544
5936.5191,9019.945
5937.1612,9019.388
5937.8032,8881.203
5938.4453,8779.801
5939.0874,8665.044
5939.7295,8776.229
5940.3716,8837.713
5941.0137,8923.391
5941.6558,8848.518
5942.2979,8796.434
5942.94,8887.94
5943.5821,8782.168
5944.2242,8774.718
5944.8663,8724.506
5945.5084,8739.042
5946.1505,8963.309
5946.7926,8898.836
5947.4347,8984.561
5948.0768,8782.222
5948.7189,8841.529
5949.361,8980.703
5950.0031,9137.833
5950.6452,9125.051
5951.2873,9030.752
5951.9294,8915.338
5952.5715,8802.941
5953.2136,8870.393
5953.8557,8954.498
5954.4978,9079.451
5955.1399,9040.637
5955.782,8924.6
5956.424,8669.232
5957.0661,8553.823
5957.7082,8674.713
5958.3503,8642.113
5958.9924,8770.369
5959.6345,8720.709
5960.2766,8890.689
5960.9187,8776.775
5961.5608,8627.445
5962.2029,8951.232
5962.845,9206.931
5963.4871,9163.36
5964.1292,9076.187
5964.7713,9008.123
5965.4134,8989.868
5966.0555,9046.59
5966.6976,8973.307
5967.3397,8986.393
5967.9818,8982.511
5968.6239,9155.1
5969.266,9096.458
5969.9081,8932.218
5970.5502,8930.509
5971.1923,9108.794
5971.8344,9369.773
5972.4765,9076.013
5973.1186,9444.688
5973.7607,9470.081
5974.4028,9278.65
5975.0448,9234.728
5975.6869,9070.162
5976.329,9145.573
5976.9711,8973.422
5977.6132,9215.085
5978.2553,8777.369
5978.8974,9058.975
5979.5395,8950.607
5980.1816,8616.977
5980.8237,8808.39
5981.4658,8982.357
5982.1079,8980.329
5982.75,8883.694
5983.3921,8885.082
5984.0342,9022.865
5984.6763,8745.477
5985.3184,9020.998
5985.9605,9099.416
5986.6026,8930.75
5987.2447,8735.924
5987.8868,8714.84
5988.5289,8533.723
5989.171,8632.025
5989.8131,8769.137
5990.4552,9138.992
5991.0973,8792.558
5991.7394,9073.318
5992.3815,9075.551
5993.0236,9187.492
5993.6656,9142.232
5994.3077,9314.004
5994.9498,9364.298
5995.5919,9013.205
5996.234,9380.971
5996.8761,9426.672
5997.5182,9215.271
5998.1603,9021.442
5998.8024,9307.363
5999.4445,9290.18
6000.0866,9014.032
6000.7287,9107.184
6001.3708,8874.795
6002.0129,8921.631
6002.655,8887.119
6003.2971,8812.545
6003.9392,8992.733
6004.5813,9016.248
6005.2234,9087.404
6005.8655,9016.208
6006.5076,9095.723
6007.1497,8999.654
6007.7918,9072.126
6008.4339,8899.006
6009.076,8903.184
6009.7181,8914.252
6010.3602,8945.878
6011.0023,8813.416
6011.6443,8547.809
6012.2864,8476.738
6012.9285,8818.812
6013.5706,8850.069
6014.2127,8954.08
6014.8548,8985.472
6015.4969,9051.286
6016.139,9049.809
6016.7811,8823.729
6017.4232,8761.951
6018.0653,8949.471
6018.7074,8937.963
6019.3495,9021.037
6019.9916,9129.83
6020.6337,8936.129
6021.2758,8656.113
6021.9179,8733.947
6022.56,8804.796
6023.2021,8798.686
6023.8442,8653.832
6024.4863,8534.324
6025.1284,8743.641
6025.7705,8838.799
6026.4126,8774.241
6027.0547,8717.088
6027.6968,8754.719
6028.3389,8819.255
6028.981,8946.569
6029.6231,9233.298
6030.2651,9195.697
6030.9072,9303.109
6031.5493,9126.587
6032.1914,9315.683
6032.8335,9535.259
6033.4756,9424.461
6034.1177,9445.931
6034.7598,9473.626
6035.4019,9557.381
6036.044,9467.789
6036.6861,9549.584
6037.3282,9507.801
6037.9703,9517.478
6038.6124,9539.091
6039.2545,9515.149
6039.8966,9262.331
6040.5387,9361.765
6041.1808,9418.962
6041.8229,9263.12
6042.465,9126.435
6043.1071,9378.053
6043.7492,9458.942
6044.3913,9383.661
6045.0334,9503.208
6045.6755,9541.857
6046.3176,9464.825
6046.9597,9489.481
6047.6018,9422.708
6048.2439,9622.009
6048.8859,9617.258
6049.528,9692.398
6050.1701,9705.267
6050.8122,9528.088
6051.4543,9524.838
6052.0964,9664.453
6052.7385,9591.042
6053.3806,9490.942
6054.0227,9393.348
6054.6648,9479.091
6055.3069,9456.919
6055.949,9433.48
6056.5911,9522.638
6057.2332,9554.507
6057.8753,9349.707
6058.5174,9137.016
6059.1595,9211.759
6059.8016,9312.772
6060.4437,9317.606
6061.0858,9233.64
6061.7279,9250.754
6062.37,9389.344
6063.0121,9640.412
6063.6542,9563.325
6064.2963,9428.531
6064.9384,9340.313
6065.5805,9087.047
6066.2226,9188.793
6066.8647,9078.431
6067.5067,8985.405
6068.1488,9099.715
6068.7909,9164.418
6069.433,9111.423
6070.0751,9295.418
6070.7172,9481.439
6071.3593,9655.36
6072.0014,9682.141
6072.6435,9706.694
6073.2856,9708.871
6073.9277,9653.865
6074.5698,9508.424
6075.2119,9483.377
6075.854,9593.205
6076.4961,9585.114
6077.1382,9538.873
6077.7803,9630.944
6078.4224,9707.506
6079.0645,9603.079
6079.7066,9483.598
6080.3487,9592.167
6080.9908,9427.344
6081.6329,9088.994
6082.275,9016.328
6082.9171,8989.82
6083.5592,9116.945
6084.2013,9203.909
6084.8434,9307.318
6085.4855,9056.943
6086.1275,9150.333
6086.7696,9217.963
6087.4117,9165.9
6088.0538,9324.006
6088.6959,9376.422
6089.338,9248.939
6089.9801,9114.898
6090.6222,9122.909
6091.2643,9261.865
6091.9064,9402.057
6092.5485,9278.844
6093.1906,9314.418
6093.8327,9092.141
6094.4748,9022.832
6095.1169,9047.015
6095.759,9159.553
6096.4011,9291.546
6097.0432,9047.704
6097.6853,9246.605
6098.3274,9322.782
6098.9695,9251.372
6099.6116,9480.817
6100.2537,9514.498
6100.8958,9294.182
6101.5379,9244.92
6102.18,9086.824
6102.8221,8771.852
6103.4642,8909.665
6104.1063,8889.469
6104.7483,8769.063
6105.3904,8645.663
6106.0325,8636.002
6106.6746,8457.987
6107.3167,8525.908
6107.9588,8819.712
6108.6009,9319.889
6109.243,9564.771
6109.8851,9418.218
6110.5272,9213.771
6111.1693,9312.304
6111.8114,9500.104
6112.4535,9661.47
6113.0956,9305.213
6113.7377,9558.433
6114.3798,9553.746
6115.0219,9625.423
6115.664,9544.805
6116.3061,9347.52
6116.9482,9475.819
6117.5903,9671.634
6118.2324,9626.208
6118.8745,9425.781
6119.5166,9321.304
6120.1587,9249.011
6120.8008,9018.172
6121.4429,8833.39
6122.085,8621.054
6122.7271,8418.559
6123.3691,8523.775
6124.0112,8315.687
6124.6533,8205.275
6125.2954,8179.856
6125.9375,7878.523
6126.5796,8242.965
6127.2217,8575.541
6127.8638,8744.241
6128.5059,9443.339
6129.148,9505.119
6129.7901,9392.375
6130.4322,9496.479
6131.0743,9286.472
6131.7164,9175.175
6132.3585,9277.761
6133.0006,9497.636
6133.6427,9295.506
6134.2848,9467.323
6134.9269,9509.947
6135.569,9205.601
6136.2111,9434.52
6136.8532,8963.808
6137.4953,9049.342
6138.1374,8461.37
6138.7795,8819.374
6139.4216,8552.609
6140.0637,8736.041
6140.7058,8214.93
6141.3479,8458.858
6141.9899,8656.397
6142.632,8929.668
6143.2741,9229.032
6143.9162,9738.414
6144.5583,9056.968
6145.2004,9226.708
6145.8425,9419.995
6146.4846,9474.534
6147.1267,9552.368
6147.7688,9530.399
6148.4109,9595.321
6149.053,9348.107
6149.6951,9436.319
6150.3372,9489.958
6150.9793,9399.718
6151.6214,9336.547
6152.2635,9357.502
6152.9056,9103.967
6153.5477,9467.613
6154.1898,9378.135
6154.8319,9204.991
6155.474,9274.357
6156.1161,9470.913
6156.7582,9190.558
6157.4003,9235.605
6158.0424,9128.065
6158.6845,8927.312
6159.3266,8659.96
6159.9687,8621.507
6160.6107,8615.298
6161.2528,8626.595
6161.8949,7994.617
6162.537,7918.883
6163.1791,7832.144
6163.8212,7790.235
6164.4633,7481.29
6165.1054,7270.431
6165.7475,6960.258
6166.3896,6893.438
6167.0317,7103.844
6167.6738,7577.859
6168.3159,7935.392
6168.958,8062.842
6169.6001,8113.104
6170.2422,8424.904
6170.8843,8458.496
6171.5264,8357.122
6172.1685,8164.729
6172.8106,7920.57
6173.4527,7928.994
6174.0948,7999.121
6174.7369,8319.297
6175.379,8667.943
6176.0211,8908.67
6176.6632,9063.229
6177.3053,8966.602
6177.9474,8958.328
6178.5895,9097.082
6179.2315,9208.91
6179.8736,9098.426
6180.5157,9007.689
6181.1578,9145.83
6181.7999,9139.623
6182.442,9192.628
6183.0841,9252.001
6183.7262,9202.93
6184.3683,9216.326
6185.0104,9284.663
6185.6525,9306.838
6186.2946,9363.665
6186.9367,9426.621
6187.5788,9186.614
6188.2209,8934.648
6188.863,8977.097
6189.5051,8940.308
6190.1472,8776.61
6190.7893,8653.078
6191.4314,8647.098
6192.0735,8483.57
6192.7156,8486.582
6193.3577,8494.001
6193.9998,8443.676
6194.6419,8326.168
6195.284,8434.158
6195.9261,8383.42
6196.5682,8597.3
6197.2103,8944.673
6197.8523,9152.476
6198.4944,9145.163
6199.1365,9199.623
6199.7786,9076.757
6200.4207,9117.965
6201.0628,9336.604
6201.7049,9222.449
6202.347,8948.838
6202.9891,9012.615
6203.6312,8825.332
6204.2733,8783.499
6204.9154,8974.283
6205.5575,9180.522
6206.1996,9457.597
6206.8417,9237.646
6207.4838,9543.93
6208.1259,9352.663
6208.768,9556.418
6209.4101,9188.166
6210.0522,9299.137
6210.6943,9024.623
6211.3364,9151.787
6211.9785,9386.632
6212.6206,9308.064
6213.2627,9053.697
6213.9048,8904.045
6214.5469,8767.971
6215.189,8470.195
6215.8311,8147.611
6216.4731,8720.846
6217.1152,8219.545
6217.7573,8304.535
6218.3994,8121.674
6219.0415,8306.721
6219.6836,8149.24
6220.3257,8201.771
6220.9678,8320.036
6221.6099,8624.949
6222.252,8641.067
6222.8941,8719.434
6223.5362,8599.16
6224.1783,8372.185
6224.8204,8600.616
6225.4625,8838.285
6226.1046,8666.809
6226.7467,8548.438
6227.3888,8833.525
6228.0309,8799.599
6228.673,8533.912
6229.3151,8560.189
6229.9572,8714.491
6230.5993,8574.198
6231.2414,8536.01
6231.8835,8483.402
6232.5256,8374.439
6233.1677,8079.584
6233.8098,8059.075
6234.4519,8066.63
6235.0939,8136.532
6235.736,8335.629
6236.3781,8433.457
6237.0202,8665.789
6237.6623,8774.3
6238.3044,8857.571
6238.9465,8967.751
6239.5886,9036.175
6240.2307,8954.968
6240.8728,8905.059
6241.5149,8675.801
6242.157,8542.405
6242.7991,8457.673
6243.4412,8339.966
6244.0833,8378.203
6244.7254,8437.584
6245.3675,8369.646
6246.0096,8329.777
6246.6517,8168.528
6247.2938,8154.258
6247.9359,8193.964
6248.578,8391.049
6249.2201,8519.871
6249.8622,8502.49
6250.5043,8599.648
6251.1464,8551.384
6251.7885,8615.673
6252.4306,8668.821
6253.0727,8769.238
6253.7147,8711.916
6254.3568,8545.03
6254.9989,8562.344
6255.641,8496.144
6256.2831,8111.144
6256.9252,7673.161
6257.5673,7888.01
6258.2094,7979.879
6258.8515,8122.379
6259.4936,8126.471
6260.1357,8214.853
6260.7778,8236.134
6261.4199,8043.469
6262.062,8337.473
6262.7041,8387.696
6263.3462,8407.034
6263.9883,8851.226
6264.6304,8868.877
6265.2725,8734.66
6265.9146,8788.957
6266.5567,8801.496
6267.1988,8970.591
6267.8409,9075.465
6268.483,8905.401
6269.1251,8612.625
6269.7672,8752.985
6270.4093,8585.612
6271.0514,8696.524
6271.6935,9131.671
6272.3355,8808.982
6272.9776,8817.742
6273.6197,8750.733
6274.2618,8592.013
6274.9039,8602.359
6275.546,8730.023
6276.1881,8864.125
6276.8302,8794.898
6277.4723,8638.433
6278.1144,8712.861
6278.7565,8522.067
6279.3986,8320.605
6280.0407,8384.295
6280.6828,8530.73
6281.3249,8721.617
6281.967,8776.668
6282.6091,8935.981
6283.2512,8819.239
6283.8933,8584.956
6284.5354,8551.996
6285.1775,8736.838
6285.8196,8876.387
6286.4617,8984.699
6287.1038,9102.146
6287.7459,9098.638
6288.388,8940.826
6289.0301,8921.508
6289.6722,8999.204
6290.3142,9152.859
6290.9563,9079.381
6291.5984,9050.897
6292.2405,9141.925
6292.8826,9150.307
6293.5247,9125.048
6294.1668,8952.253
6294.8089,8882.935
6295.451,8783.279
6296.0931,8753.792
6296.7352,8863.203
6297.3773,8642.297
6298.0194,8679.432
6298.6615,9031.48
6299.3036,8583.945
6299.9457,8662.975
6300.5878,8436.735
6301.2299,8321.854
6301.872,8395.825
6302.5141,8772.235
6303.1562,8497.691
6303.7983,8492.072
6304.4404,8708.288
6305.0825,8602.992
6305.7246,8621.772
6306.3667,8481.848
6307.0088,8755.781
6307.6509,8799.312
6308.293,9008.844
6308.935,9084.551
6309.5771,9199.559
6310.2192,8992.186
6310.8613,9475.375
6311.5034,9431.404
6312.1455,9362.458
6312.7876,9070.402
6313.4297,9245.514
6314.0718,9298.726
6314.7139,8853.42
6365.4395,9013.569
6366.0816,9068.992
6366.7237,9080.912
6367.3658,8989.798
6368.0079,9154.119
6368.65,9264.409
6369.2921,9026.57
6369.9342,9393.984
6370.5763,9406.959
6371.2184,9565.904
6371.8605,9644.9
6372.5026,9448.61
6373.1447,9693.625
6373.7868,9762.562
6374.4289,9558.526
6375.071,9539.661
6375.7131,9473.666
6376.3552,9606.066
6376.9973,9741.546
6377.6394,9617.149
6378.2815,9600.771
6378.9236,9611.267
6379.5657,9535.712
6380.2078,9471.215
6380.8499,9360.434
6381.492,9353.248
6382.1341,9453.395
6382.7762,9364.008
6383.4182,9381.327
6384.0603,9277.251
6384.7024,9131.39
6385.3445,9121.799
6385.9866,9305.817
6386.6287,9475.063
6387.2708,9519.642
6387.9129,9470.253
6388.555,9405.26
6389.1971,9509.938
6389.8392,9647.646
6390.4813,9301.501
6391.1234,9339.019
6391.7655,9493.035
6392.4076,9430.847
6393.0497,9187.241
6393.6918,9359.112
6394.3339,9409.317
6394.976,9175.461
6395.6181,9184.96
6396.2602,9099.973
6396.9023,9049.503
6397.5444,9281.22
6398.1865,9039.33
6398.8286,9224.532
6399.4707,9380.77
6400.1128,9319.738
6400.7549,9275.54
6401.397,9352.574
6402.039,9347.291
6402.6811,9256.154
6403.3232,9242.249
6403.9653,9052.089
6404.6074,8976.081
6405.2495,8898.694
6405.8916,9213.506
6406.5337,9510.402
6407.1758,9543.568
6407.8179,9624.201
6408.46,9643.075
6409.1021,9578.404
6409.7442,9447.714
6410.3863,9359.543
6411.0284,9208.188
6411.6705,8991.283
6412.3126,9131.57
6412.9547,9316.96
6413.5968,9404.075
6414.2389,9432.908
6414.881,9345.759
6415.5231,9320.297
6416.1652,9138.388
6416.8073,9178.81
6417.4494,9312.345
6418.0915,9369.696
6418.7336,9447.992
6419.3757,9446.911
6420.0178,9498.243
6420.6598,9393.765
6421.3019,9187.194
6421.944,9524.992
6422.5861,9357.309
6423.2282,9140.157
6423.8703,9410.27
6424.5124,9210.62
6425.1545,9293.693
6425.7966,9350.116
6426.4387,9511.207
6427.0808,9740.603
6427.7229,9712.471
6428.365,9700.785
6429.0071,9846.216
6429.6492,9738.289
6430.2913,9649.921
6430.9334,9569.962
6431.5755,9499.117
6432.2176,9643.286
6432.8597,9675.778
6433.5018,9554.094
6434.1439,9291.018
6434.786,9242.189
6435.4281,9362.467
6436.0702,9506.008
6436.7123,9601.202
6437.3544,9792.365
6437.9965,9626.311
6438.6386,9322.97
6439.2806,9410.042
6439.9227,9336.298
6440.5648,9222.885
6441.2069,9325.488
6441.849,9354.78
6442.4911,9056.688
6443.1332,9077.293
6443.7753,8963.44
6444.4174,9356.261
6445.0595,9957.48
6445.7016,9839.116
6446.3437,10073.72
6446.9858,9975.324
6447.6279,9816.938
6448.27,9625.582
6448.9121,9750.338
6449.5542,9524.093
6450.1963,9436.196
6450.8384,9393.34
6451.4805,9443.416
6452.1226,9254.809
6452.7647,9065.716
6453.4068,9040.679
6454.0489,9027.764
6454.691,9087.222
6455.3331,9228.967
6455.9752,9567.479
6456.6173,9772.632
6457.2594,9814.142
6457.9014,9687.964
6458.5435,9676.463
6459.1856,9668.867
6459.8277,9685.326
6460.4698,9709.626
6461.1119,9601.506
6461.754,9692.391
6462.3961,9374.331
6463.0382,9451.949
6463.6803,9287.968
6464.3224,9226.677
6464.9645,9044.395
6465.6066,9182.195
6466.2487,9368.837
6466.8908,8808.127
6467.5329,8857.322
6468.175,9075.865
6468.8171,9498.84
6469.4592,9737.269
6470.1013,9780.812
6470.7434,9754.731
6471.3855,9884.226
6472.0276,9796.915
6472.6697,9712.659
6473.3118,9656.793
6473.9539,9678.36
6474.596,9657.224
6475.2381,9526.168
6475.8802,9442.834
6476.5222,9476.253
6477.1643,9554.351
6477.8064,9703.401
6478.4485,9784.36
6479.0906,9674.871
6479.7327,9727.437
6480.3748,9779.323
6481.0169,9728.321
6481.659,9870.314
6482.3011,9818.865
6482.9432,9634.256
6483.5853,9595.569
6484.2274,9628.396
6484.8695,9846.5
6485.5116,9462.024
6486.1537,9349.387
6486.7958,9522.158
6487.4379,9541.512
6488.08,9688.276
6488.7221,10001.59
6489.3642,9950.074
6490.0063,9850.201
6490.6484,9875.331
6491.2905,9806.245
6491.9326,9638.083
6492.5747,9545.535
6493.2168,9295.619
6493.8589,9290.608
6494.501,9298.019
6495.143,9055.321
6495.7851,8842.797
6496.4272,8770.718
6497.0693,8631.987
6497.7114,8393.366
6498.3535,8283.396
6498.9956,8188.947
6499.6377,8136.378
6500.2798,8418.652
6500.9219,8780.694
6501.564,8839.819
6502.2061,8945.011
6502.8482,9069.949
6503.4903,8940.996
6504.1324,9398.872
6504.7745,9349.473
6505.4166,9855.365
6506.0587,10003.46
6506.7008,9813.521
6507.3429,9818.149
6507.985,9890.989
6508.6271,9776.536
6509.2692,9837.163
6509.9113,9833.891
6510.5534,9869.313
6511.1955,9921.609
6511.8376,9809.517
6512.4797,9674.168
6513.1218,9694.596
6513.7638,9731.352
6514.4059,9752.295
6515.048,9751.826
6515.6901,9837.447
6516.3322,9825.929
6516.9743,9602.632
6517.6164,9629.28
6518.2585,9701.139
6518.9006,9732.601
6519.5427,9651.313
6520.1848,9802.406
6520.8269,9807.866
6521.469,9912.695
6522.1111,9804.907
6522.7532,9915.178
6523.3953,9587.854
6524.0374,9713.656
6524.6795,9749.808
6525.3216,9898.596
6525.9637,9743.161
6526.6058,9925.706
6527.2479,9898.985
6527.89,10101.4
6528.5321,9961.05
6529.1742,9979.225
6529.8163,10007.74
6530.4584,10067.55
6531.1005,10098.3
6531.7426,9877.503
6532.3846,9740.968
6533.0267,9762.221
6533.6688,9905.41
6534.3109,9986.989
6534.953,9975.771
6535.5951,9982.661
6536.2372,10063.22
6536.8793,10096.23
6537.5214,9888.547
6538.1635,9994.063
6538.8056,9931.849
6539.4477,10063.66
6540.0898,10072.0
6540.7319,10110.35
6541.374,10003.32
6542.0161,10027.23
6542.6582,10093.1
6543.3003,10152.71
6543.9424,9938.475
6544.5845,9859.296
6545.2266,9970.903
6545.8687,9692.061
6546.5108,9609.232
6547.1529,9685.24
6547.795,9687.743
6548.4371,9777.791
6549.0792,9797.088
6549.7213,9530.78
6550.3634,9503.892
6551.0054,9632.207
6551.6475,9685.983
6552.2896,9601.544
6552.9317,9631.195
6553.5738,9617.25
6554.2159,9350.472
6554.858,9359.553
6555.5001,9446.127
6556.1422,9335.434
6556.7843,9409.68
6557.4264,9539.715
6558.0685,9374.007
6558.7106,9561.74
6559.3527,9659.237
6559.9948,9766.609
6560.6369,9443.422
6561.279,9485.303
6561.9211,9804.622
6562.5632,9887.797
6563.2053,10052.76
6563.8474,9878.905
6564.4895,9826.41
6565.1316,9766.099
6565.7737,9595.863
6566.4158,9730.332
6567.0579,10055.13
6567.7,10196.25
6568.3421,10103.96
6568.9841,9823.542
6569.6262,9393.894
6570.2683,9543.953
6570.9104,9647.33
6571.5525,9476.354
6572.1946,9394.941
6572.8367,9332.746
6573.4788,9219.718
6574.1209,9114.781
6574.763,9220.959
6575.4051,9264.612
6576.0472,9156.572
6576.6893,9129.024
6577.3314,9206.472
6577.9735,9347.151
6578.6156,9194.21
6579.2577,9294.863
6579.8998,9400.545
6580.5419,9687.108
6581.184,9615.739
6581.8261,9585.313
6582.4682,9545.379
6583.1103,9514.285
6583.7524,9480.569
6584.3945,9446.823
6585.0366,9501.916
6585.6787,9487.461
6586.3208,9498.487
6586.9629,9565.063
6587.6049,9659.686
6588.247,9785.893
6588.8891,9784.948
6589.5312,9750.68
6590.1733,9610.454
6590.8154,9589.688
6591.4575,9881.449
6592.0996,9590.531
6592.7417,9424.466
6593.3838,9307.648
6594.0259,9254.197
6594.668,9386.814
6595.3101,9415.238
6595.9522,9293.596
6596.5943,9050.634
6597.2364,8892.095
6597.8785,8945.623
6598.5206,8997.264
6599.1627,9125.326
6599.8048,9187.773
6600.4469,9321.085
6601.089,9532.615
6601.7311,9507.911
6602.3732,9347.756
6603.0153,9327.42
6603.6574,9414.165
6604.2995,9530.344
6604.9416,9631.975
6605.5837,9629.238
6606.2257,9334.753
6606.8678,9775.056
6607.5099,9604.328
6608.152,9490.302
6608.7941,9550.438
6609.4362,9330.476
6610.0783,9462.375
6610.7204,9404.715
6611.3625,9275.12
6612.0046,9199.927
6612.6467,9312.668
6613.2888,9260.628
6613.9309,9256.585
6614.573,9395.114
6615.2151,9568.193
6615.8572,9495.704
6616.4993,9520.4
6617.1414,9665.263
6617.7835,9590.238
6618.4256,9675.718
6619.0677,9628.152
6619.7098,9863.169
6620.3519,9457.808
6620.994,9686.826
6621.6361,9470.878
6622.2782,9561.885
6622.9203,9557.979
6623.5624,9471.075
6624.2045,9493.086
6624.8465,9653.73
6625.4886,9503.111
6626.1307,9293.92
6626.7728,9218.13
6627.4149,9214.958
6628.057,9267.621
6628.6991,9369.867
6629.3412,9367.806
6629.9833,9237.69
6630.6254,9164.154
6631.2675,9262.216
6631.9096,9354.651
6632.5517,9392.025
6633.1938,9297.265
6633.8359,9298.202
6634.478,9054.685
6635.1201,9066.607
6635.7622,9053.086
6636.4043,8911.33
6637.0464,8931.929
6637.6885,9004.537
6638.3306,8901.756
6638.9727,8861.882
6639.6148,9073.344
6640.2569,9279.827
6640.899,9383.407
6641.5411,9425.729
6642.1832,9399.265
6642.8253,9220.91
6643.4673,9136.384
6644.1094,9244.153
6644.7515,9306.338
6645.3936,9231.484
6646.0357,9021.016
6646.6778,9036.419
6647.3199,9032.365
6647.962,9078.033
6648.6041,8950.499
6649.2462,9036.743
6649.8883,9252.168
6650.5304,9300.213
6651.1725,9370.04
6651.8146,9189.677
6652.4567,9191.908
6653.0988,9011.214
6653.7409,8988.006
6654.383,8971.986
6655.0251,9035.45
6655.6672,9073.066
6656.3093,9214.215
6656.9514,9300.343
6657.5935,9338.707
6658.2356,9293.911
6658.8777,9276.568
6659.5198,9195.152
6660.1619,9120.983
6660.804,9253.838
6661.4461,9093.817
6662.0881,8924.578
6662.7302,9070.06
6663.3723,8883.069
6664.0144,8892.408
6664.6565,8780.509
6665.2986,9058.244
6665.9407,8923.146
6666.5828,8700.777
6667.2249,8866.326
6667.867,8669.107
6668.5091,8705.057
6669.1512,8874.382
6669.7933,9096.57
6670.4354,9068.245
6671.0775,9095.87
6671.7196,9133.949
6672.3617,8933.042
6673.0038,8928.114
6673.6459,9029.996
6674.288,9069.879
6674.9301,9150.312
6675.5722,9053.292
6676.2143,9065.464
6676.8564,8940.468
6677.4985,9055.698
6678.1406,9035.186
6678.7827,8905.873
6679.4248,8867.591
6680.0669,8814.417
6680.7089,8601.724
6681.351,8725.259
6681.9931,8526.59
6682.6352,8449.298
6683.2773,8525.226
6683.9194,8753.105
6684.5615,8872.619
6685.2036,8838.654
6685.8457,8884.384
6686.4878,9059.193
6687.1299,9090.936
6687.772,9092.046
6688.4141,8947.071
6689.0562,9066.172
6689.6983,8969.058
6690.3404,8884.75
6690.9825,9027.769
6691.6246,8907.053
6692.2667,8767.441
6692.9088,8845.238
6693.5509,8994.42
6694.193,9115.514
6694.8351,9018.076
6695.4772,9025.289
6696.1193,8920.043
6696.7614,9037.87
6697.4035,9073.575
6698.0456,8911.36
6698.6877,8686.54
6699.3297,8683.242
6699.9718,8549.102
6700.6139,8637.423
6701.256,8745.151
6701.8981,8665.522
6702.5402,8622.723
6703.1823,8783.187
6703.8244,8790.358
6704.4665,8986.825
6705.1086,8817.415
6705.7507,8681.36
6706.3928,8945.289
6707.0349,8937.977
6707.677,8704.577
6708.3191,8721.872
6708.9612,8833.198
6709.6033,8761.834
6710.2454,8711.263
6710.8875,8778.053
6711.5296,8713.743
6712.1717,8677.527
6712.8138,8734.384
6713.4559,8697.049
6714.098,8675.79
6714.7401,8521.861
6715.3822,8713.392
6716.0243,8459.033
6716.6664,8499.752
6717.3085,8414.916
6717.9505,8436.049
6718.5926,8338.602
6719.2347,8174.982
6719.8768,8261.253
6720.5189,8304.321
6721.161,8182.412
6721.8031,8124.252
6722.4452,8085.149
6723.0873,8294.19
6723.7294,8461.088
6724.3715,8570.664
6725.0136,8640.286
6725.6557,8493.082
6726.2978,8740.22
6726.9399,8532.328
6727.582,8572.219
6728.2241,8372.133
6728.8662,8440.11
6729.5083,8525.78
6730.1504,8515.549
6730.7925,8479.189
6731.4346,8510.953
6732.0767,8436.135
6732.7188,8549.155
6733.3609,8529.679
6734.003,8438.412
6734.6451,8316.495
6735.2872,8675.324
6735.9293,8684.229
6736.5713,8555.517
6737.2134,8452.493
6737.8555,8502.812
6738.4976,8420.998
6739.1397,8351.576
6739.7818,8526.598
6740.4239,8308.939
6741.066,8384.401
6741.7081,8339.599
6742.3502,8504.497
6742.9923,8353.279
6743.6344,8253.591
6744.2765,8336.291
6744.9186,8322.032
6745.5607,8283.205
6746.2028,8339.813
6746.8449,8347.916
6747.487,8346.424
6748.1291,8149.693
6748.7712,8213.036
6749.4133,8293.346
6750.0554,8089.721
6750.6975,8259.895
6751.3396,8335.014
6751.9817,8468.357
6752.6238,8180.775
6753.2659,8036.249
6753.908,7929.582
6754.5501,7888.952
6755.1921,7895.144
6755.8342,8100.536
6756.4763,8207.229
6757.1184,8125.286
6757.7605,8127.41
6758.4026,8311.112
6759.0447,8420.136
6759.6868,8411.713
6760.3289,8469.329
6760.971,8381.517
6761.6131,8515.426
6762.2552,8452.345
6762.8973,8421.056
6763.5394,8383.08
6764.1815,8460.947
6764.8236,8501.155
6765.4657,8494.833
6766.1078,8434.489
6766.7499,8379.285
6767.392,8480.477
6768.0341,8224.228
6768.6762,8333.192
6769.3183,8420.943
6769.9604,8397.862
6770.6025,8292.74
6771.2446,8127.332
6771.8867,8082.498
6772.5288,8075.756
6773.1709,8126.865
6773.8129,8040.671
6774.455,8251.701
6775.0971,8312.842
6775.7392,8290.368
6776.3813,8094.459
6777.0234,8049.141
6777.6655,8304.682
6778.3076,8227.533
6778.9497,8322.087
6779.5918,8430.793
6780.2339,8376.4
6780.876,8233.151
6781.5181,8109.114
6782.1602,8107.838
6782.8023,8139.606
6783.4444,8168.653
6784.0865,8026.726
6784.7286,8171.722
6785.3707,8062.657
6786.0128,7943.185
6786.6549,7959.514
6787.297,8038.455
6787.9391,8117.38
6788.5812,8086.187
6789.2233,7907.411
6789.8654,7855.007
6790.5075,7924.232
6791.1496,7893.001
6791.7917,7950.745
6792.4337,8002.373
6793.0758,8095.081
6793.7179,8146.739
6794.36,8153.256
6795.0021,8205.117
6795.6442,8135.865
6796.2863,8217.185
6796.9284,8091.098
6797.5705,7953.862
6798.2126,8094.359
6798.8547,8214.963
6799.4968,7903.526
6800.1389,7888.085
6800.781,7976.574
6801.4231,7991.0
6802.0652,7941.698
6802.7073,7886.949
6803.3494,7822.797
6803.9915,8013.175
6804.6336,8087.971
6805.2757,8007.274
6805.9178,8020.589
6806.5599,7886.608
6807.202,8003.649
6807.8441,7943.883
6808.4862,7868.163
6809.1283,8103.172
6809.7704,8039.714
6810.4125,7875.009
6811.0545,7872.53
6811.6966,7953.854
6812.3387,7905.323
6812.9808,7954.259
6813.6229,7983.64
6814.265,7984.327
6814.9071,8015.756
6815.5492,7996.105
6816.1913,8122.621
6816.8334,8084.406
6817.4755,7871.812
6818.1176,7845.263
6818.7597,8006.975
6819.4018,7941.806
6820.0439,7737.854
6820.686,7924.204
6821.3281,7994.015
6821.9702,7965.12
6822.6123,7847.287
6823.2544,7750.087
6823.8965,7818.228
6824.5386,7997.887
6825.1807,7803.97
6825.8228,7801.76
6826.4649,7815.995
6827.107,7922.269
6827.7491,7829.33
6828.3912,7923.262
6829.0333,7813.964
6829.6753,7711.425
6830.3174,7783.123
6830.9595,7759.089
6831.6016,7809.225
6832.2437,7871.937
6832.8858,7785.063
6833.5279,7680.288
6834.17,7765.959
6834.8121,7911.039
6835.4542,7870.976
6836.0963,7805.974
6836.7384,7829.437
6837.3805,7892.784
6838.0226,7802.634
6838.6647,7615.335
6839.3068,7571.645
6839.9489,7694.895
6840.591,7684.439
6841.2331,7676.033
6841.8752,7546.333
6842.5173,7468.903
6843.1594,7518.541
6843.8015,7462.707
6844.4436,7460.95
6845.0857,7424.21
6845.7278,7583.124
6846.3699,7605.784
6847.012,7283.001
6847.6541,7474.421
6848.2961,7427.595
6848.9382,7337.963
6849.5803,7426.864
6850.2224,7560.126
6850.8645,7656.706
6851.5066,7681.047
6852.1487,7640.124
6852.7908,7531.931
6853.4329,7531.67
6854.075,7514.278
6854.7171,7565.675
6855.3592,7371.329
6856.0013,7261.645
6856.6434,7454.53
6857.2855,7457.679
6857.9276,7380.85
6858.5697,7601.994
6859.2118,7487.322
6859.8539,7326.671
6860.496,7251.492
6861.1381,7315.447
6861.7802,7258.921
6862.4223,7155.921
6863.0644,7158.987
6863.7065,7188.549
6864.3486,7104.653
6864.9907,6921.453
6865.6328,6756.687
6866.2748,6590.557
6866.9169,6426.886
6867.559,6346.341
6868.2011,6333.221
6868.8432,6171.513
6869.4853,5498.107
6870.1274,4855.2
6870.7695,4809.493
6871.4116,5001.43
6872.0537,5174.821
6872.6958,5334.899
6873.3379,5503.568
6873.98,5465.641
6874.6221,5612.264
6875.2642,5597.76
6875.9063,5595.878
6876.5484,5839.661
6877.1905,6124.747
6877.8326,6236.29
6878.4747,6431.381
6879.1168,6584.465
6879.7589,6590.271
6880.401,6525.434
6881.0431,6531.055
6881.6852,6761.721
6882.3273,6801.64
6882.9694,6844.353
6883.6115,6899.254
6884.2536,6785.484
6884.8956,6718.835
6885.5377,6465.562
6886.1798,6438.301
6886.8219,6300.093
6887.464,6103.991
6888.1061,5964.722
6888.7482,6318.162
6889.3903,6430.273
6890.0324,6318.433
6890.6745,6371.254
6891.3166,6355.625
6891.9587,6323.011
6892.6008,6374.071
6893.2429,6502.653
6893.885,6533.118
6894.5271,6316.736
6895.1692,6239.121
6895.8113,6450.061
6896.4534,6805.571
6897.0955,6700.401
6897.7376,6718.95
6898.3797,6355.741
6899.0218,6439.507
6899.6639,6374.484
6900.306,6658.938
6900.9481,6799.39
6901.5902,6627.167
6902.2323,6401.898
6902.8744,6472.594
6903.5164,6462.353
6904.1585,6645.706
6904.8006,6894.836
6905.4427,6886.404
6906.0848,6860.661
6906.7269,7160.756
6907.369,6867.61
6908.0111,6953.757
6908.6532,7023.419
6909.2953,7070.676
6909.9374,7109.594
6910.5795,6848.355
6911.2216,6589.943
6911.8637,6636.635
6912.5058,6793.032
6913.1479,6924.591
6913.79,7166.156
6914.4321,7097.224
6915.0742,6910.044
6915.7163,6735.519
6916.3584,6655.344
6917.0005,6865.489
6917.6426,6993.509
6918.2847,7338.854
6918.9268,7066.486
6919.5689,6802.419
6920.211,6593.348
6920.8531,6665.7
6921.4952,6685.775
6922.1372,6872.448
6922.7793,7096.941
6923.4214,7210.328
6924.0635,6990.458
6924.7056,7026.355
6925.3477,7013.523
6925.9898,6938.786
6926.6319,6932.24
6927.274,6977.911
6927.9161,7038.981
6928.5582,6905.884
6929.2003,6783.453
6929.8424,6784.785
6930.4845,6918.529
6931.1266,6930.185
6931.7687,6732.038
6932.4108,6930.065
6933.0529,7205.364
6933.695,7523.494
6934.3371,7429.72
6934.9792,7199.658
6935.6213,7151.528
6936.2634,7081.043
6936.9055,7013.243
6937.5476,7029.76
6938.1897,7177.137
6938.8318,7066.139
6939.4739,7203.699
6940.116,7337.438
6940.758,7281.31
6941.4001,7205.375
6942.0422,7260.012
6942.6843,7151.539
6943.3264,7040.26
6943.9685,7072.244
6944.6106,7255.91
6945.2527,7092.951
6945.8948,7093.629
6946.5369,7237.86
6947.179,7324.61
6947.8211,7329.783
