wavelength,flux
4987.9697,4632.381
4988.6117,4632.429
4989.2537,4632.477
4989.8957,4702.702
4990.5377,4707.709
4991.1796,4314.817
4991.8216,4476.016
4992.4636,4473.577
4993.1056,4529.392
4993.7476,4428.198
4994.3895,4380.13
4995.0315,4577.602
4995.6735,4670.812
4996.3155,4562.681
4996.9575,4605.02
4997.5995,4651.258
4998.2414,4522.462
4998.8834,4454.56
4999.5254,4431.775
5000.1674,4332.763
5000.8094,4241.944
5001.4514,4139.659
5002.0933,3999.622
5002.7353,4231.42
5003.3773,4109.417
5004.0193,4275.812
5004.6613,4122.783
5005.3032,4219.968
5005.9452,4273.337
5006.5872,4212.8
5007.2292,3972.28
5007.8712,3993.199
5008.5132,3895.415
5009.1551,4108.796
5009.7971,4379.642
5010.4391,4407.602
5011.0811,4476.753
5011.7231,4546.598
5012.365,4370.15
5013.007,4161.729
5013.649,4033.264
5014.291,4003.179
5014.933,3837.505
5015.575,3624.157
5016.2169,3762.591
5016.8589,3805.677
5017.5009,3901.911
5018.1429,4106.46
5018.7849,4259.233
5019.4269,4359.343
5020.0688,4245.722
5020.7108,4438.756
5021.3528,4543.648
5021.9948,4619.886
5022.6368,4296.104
5023.2787,4287.737
5023.9207,4248.797
5024.5627,4415.879
5025.2047,4321.559
5025.8467,4447.687
5026.4887,4572.728
5027.1306,4655.137
5027.7726,4575.47
5028.4146,4286.866
5029.0566,4269.681
5029.6986,4429.85
5030.3406,4360.741
5030.9825,4573.692
5031.6245,4751.019
5032.2665,5108.893
5032.9085,4871.104
5033.5505,4954.208
5034.1924,4769.193
5034.8344,4623.512
5035.4764,4939.874
5036.1184,4814.941
5036.7604,4531.031
5037.4024,4376.222
5038.0443,4244.862
5038.6863,4174.424
5039.3283,4121.403
5039.9703,4177.979
5040.6123,3967.617
5041.2542,3781.342
5041.8962,3804.831
5042.5382,3901.937
5043.1802,4034.097
5043.8222,4134.859
5044.4642,4246.511
5045.1061,4505.926
5045.7481,4720.095
5046.3901,5002.259
5047.0321,4979.267
5047.6741,4870.421
5048.3161,5018.112
5048.958,4913.318
5049.6,4786.803
5050.242,4565.28
5050.884,4557.479
5051.526,4464.193
5052.1679,4436.946
5052.8099,4539.353
5053.4519,4454.438
5054.0939,4545.967
5054.7359,4872.568
5055.3779,4964.974
5056.0198,4847.776
5056.6618,4883.402
5057.3038,5071.882
5057.9458,5098.702
5058.5878,4971.714
5059.2298,5102.406
5059.8717,5179.25
5060.5137,5024.723
5061.1557,4956.642
5061.7977,5087.942
5062.4397,4981.52
5063.0816,4838.65
5063.7236,4861.907
5064.3656,4960.769
5065.0076,4903.284
5065.6496,4748.969
5066.2916,4722.658
5066.9335,4544.096
5067.5755,4420.64
5068.2175,4360.089
5068.8595,4619.276
5069.5015,4767.694
5070.1435,4663.654
5070.7854,4617.354
5071.4274,4606.766
5072.0694,4589.399
5072.7114,4597.291
5073.3534,4717.055
5073.9953,4757.834
5074.6373,4656.367
5075.2793,4570.524
5075.9213,4846.813
5076.5633,4780.774
5077.2053,4677.547
5077.8472,4555.153
5078.4892,4577.355
5079.1312,4376.187
5079.7732,4519.745
5080.4152,4412.631
5081.0571,4209.955
5081.6991,4261.775
5082.3411,4217.117
5082.9831,4260.318
5083.6251,4353.832
5084.2671,4491.606
5084.909,4631.373
5085.551,4627.389
5086.193,4574.984
5086.835,4827.899
5087.477,4939.775
5088.119,5063.34
5088.7609,4941.572
5089.4029,5011.635
5090.0449,4947.535
5090.6869,4887.389
5091.3289,5045.679
5091.9708,5058.614
5092.6128,5007.825
5093.2548,5201.241
5093.8968,5352.006
5094.5388,5226.2
5095.1808,5347.299
5095.8227,5255.93
5096.4647,5057.756
5097.1067,4942.196
5097.7487,4848.26
5098.3907,4714.444
5099.0327,4619.12
5099.6746,4538.413
5100.3166,4512.025
5100.9586,4503.584
5101.6006,4461.749
5102.2426,4720.063
5102.8845,4653.755
5103.5265,4649.633
5104.1685,4799.536
5104.8105,4781.308
5105.4525,4643.703
5106.0945,4698.437
5106.7364,4665.41
5107.3784,4605.612
5108.0204,4489.087
5108.6624,4403.687
5109.3044,4377.547
5109.9463,4450.396
5110.5883,4655.981
5111.2303,4718.133
5111.8723,4751.562
5112.5143,4845.789
5113.1563,5000.296
5113.7982,5056.484
5114.4402,4919.729
5115.0822,5017.466
5115.7242,5236.562
5116.3662,5313.665
5117.0082,5346.287
5117.6501,5224.937
5118.2921,5308.387
5118.9341,5280.679
5119.5761,5194.326
5120.2181,5099.249
5120.86,5028.885
5121.502,4963.384
5122.144,4863.586
5122.786,4759.609
5123.428,4576.729
5124.07,4883.832
5124.7119,4879.271
5125.3539,4594.494
5125.9959,4435.895
5126.6379,4452.454
5127.2799,4461.827
5127.9219,4548.901
5128.5638,4598.767
5129.2058,4625.205
5129.8478,4699.781
5130.4898,4741.252
5131.1318,4814.084
5131.7737,5145.535
5132.4157,4910.216
5133.0577,5112.229
5133.6997,5426.06
5134.3417,5147.255
5134.9837,5127.704
5135.6256,5243.305
5136.2676,5215.859
5136.9096,5105.379
5137.5516,5218.593
5138.1936,4909.263
5138.8356,4870.303
5139.4775,4822.403
5140.1195,4709.964
5140.7615,4639.622
5141.4035,4744.73
5142.0455,4848.493
5142.6874,4870.575
5143.3294,4840.059
5143.9714,4805.993
5144.6134,4823.273
5145.2554,4828.519
5145.8974,4887.696
5146.5393,5026.468
5147.1813,4905.358
5147.8233,4941.149
5148.4653,4548.51
5149.1073,4818.315
5149.7492,4938.431
5150.3912,4805.192
5151.0332,4654.214
5151.6752,5005.091
5152.3172,4654.386
5152.9592,4655.547
5153.6011,4541.504
5154.2431,4563.149
5154.8851,4779.277
5155.5271,4771.521
5156.1691,4873.709
5156.8111,5079.56
5157.453,5421.689
5158.095,5604.481
5158.737,5572.062
5159.379,5656.159
5160.021,5774.735
5160.6629,5773.052
5161.3049,5700.845
5161.9469,5602.571
5162.5889,5547.472
5163.2309,5353.131
5163.8729,5168.575
5164.5148,5006.186
5165.1568,4774.124
5165.7988,4508.293
5166.4408,4229.099
5167.0828,3986.626
5167.7248,3821.176
5168.3667,3618.527
5169.0087,3690.465
5169.6507,3695.457
5170.2927,3711.702
5170.9347,3739.569
5171.5766,3755.897
5172.2186,3673.631
5172.8606,3655.827
5173.5026,3442.08
5174.1446,3231.708
5174.7866,3544.633
5175.4285,3851.697
5176.0705,4016.761
5176.7125,4413.458
5177.3545,4651.665
5177.9965,4740.281
5178.6384,4833.239
5179.2804,4897.804
5179.9224,4834.949
5180.5644,4664.942
5181.2064,4461.049
5181.8484,4108.769
5182.4903,3860.584
5183.1323,3537.678
5183.7743,3511.598
5184.4163,3306.893
5185.0583,3351.387
5185.7003,3477.678
5186.3422,3970.594
5186.9842,4406.824
5187.6262,4868.421
5188.2682,5196.405
5188.9102,5310.19
5189.5521,5419.912
5190.1941,5418.945
5190.8361,5318.743
5191.4781,5361.605
5192.1201,5317.715
5192.7621,5330.885
5193.404,5153.094
5194.046,4863.064
5194.688,5087.485
5195.33,5108.783
5195.972,5334.615
5196.614,5639.331
5197.2559,5830.906
5197.8979,5877.521
5198.5399,5678.509
5199.1819,5923.378
5199.8239,5964.219
5200.4658,5944.439
5201.1078,5900.165
5201.7498,6030.803
5202.3918,5973.77
5203.0338,5830.818
5203.6758,5566.92
5204.3177,5160.717
5204.9597,4865.117
5205.6017,4745.735
5206.2437,4450.2
5206.8857,4016.348
5207.5276,3970.223
5208.1696,4167.177
5208.8116,4188.024
5209.4536,4225.253
5210.0956,4493.616
5210.7376,4609.983
5211.3795,4972.098
5212.0215,5294.412
5212.6635,5706.301
5213.3055,6167.228
5213.9475,6388.238
5214.5895,6700.667
5215.2314,6401.563
5215.8734,6384.654
5216.5154,6125.197
5217.1574,6066.146
5217.7994,5997.296
5218.4413,5990.874
5219.0833,6373.193
5219.7253,6719.79
5220.3673,6820.498
5221.0093,6857.164
5221.6513,6802.986
5222.2932,6917.306
5222.9352,6930.106
5223.5772,6598.752
5224.2192,6399.205
5224.8612,6093.882
5225.5032,5810.041
5226.1451,5675.76
5226.7871,5596.843
5227.4291,5248.216
5228.0711,5262.412
5228.7131,5442.823
5229.355,5726.259
5229.997,5923.519
5230.639,6101.991
5231.281,6347.421
5231.923,6259.621
5232.565,6474.756
5233.2069,6496.369
5233.8489,6380.745
5234.4909,6260.068
5235.1329,6408.211
5235.7749,6602.105
5236.4169,6671.048
5237.0588,6942.574
5237.7008,7216.423
5238.3428,7279.196
5238.9848,7321.072
5239.6268,7417.738
5240.2687,7465.427
5240.9107,7469.077
5241.5527,7290.81
5242.1947,7145.259
5242.8367,7338.969
5243.4787,7316.682
5244.1206,7218.03
5244.7626,7474.409
5245.4046,7320.791
5246.0466,7027.648
5246.6886,7178.453
5247.3305,7130.087
5247.9725,6874.354
5248.6145,6703.856
5249.2565,6591.183
5249.8985,6569.785
5250.5405,6610.015
5251.1824,6689.461
5251.8244,6574.814
5252.4664,6502.438
5253.1084,6670.701
5253.7504,6755.42
5254.3924,6864.492
5255.0343,6964.587
5255.6763,6947.977
5256.3183,7145.755
5256.9603,7148.924
5257.6023,7266.342
5258.2442,7548.563
5258.8862,7334.657
5259.5282,7461.257
5260.1702,7288.076
5260.8122,7131.701
5261.4542,6926.764
5262.0961,6654.192
5262.7381,6410.466
5263.3801,6015.945
5264.0221,5665.235
5264.6641,5614.263
5265.3061,5534.46
5265.948,4033.198
5266.59,4270.624
5267.232,5202.382
5267.874,5092.44
5268.516,4909.94
5269.1579,4954.816
5269.7999,5081.218
5270.4419,5193.323
5271.0839,5325.471
5271.7259,5372.686
5272.3679,5299.409
5273.0098,5497.375
5273.6518,5912.668
5274.2938,6431.878
5274.9358,6510.094
5275.5778,6666.048
5276.2197,6726.312
5276.8617,6879.746
5277.5037,7051.723
5278.1457,7405.579
5278.7877,7565.823
5279.4297,7699.819
5280.0716,7896.466
5280.7136,7629.687
5281.3556,7253.891
5281.9976,7009.051
5282.6396,6736.958
5283.2816,6682.034
5283.9235,6793.663
5284.5655,6797.65
5285.2075,6733.605
5285.8495,7101.342
5286.4915,7643.408
5287.1334,7790.056
5287.7754,7913.944
5288.4174,8274.918
5289.0594,8156.129
5289.7014,8142.928
5290.3434,8087.433
5290.9853,8087.808
5291.6273,8199.175
5292.2693,8417.788
5292.9113,8005.841
5293.5533,8078.468
5294.1953,8099.427
5294.8372,7758.015
5295.4792,7712.859
5296.1212,7398.561
5296.7632,7129.378
5297.4052,7015.295
5298.0471,6643.936
5298.6891,6529.636
5299.3311,6331.385
5299.9731,6338.35
5300.6151,6587.963
5301.2571,6885.509
5301.899,7414.461
5302.541,7699.261
5303.183,7651.409
5303.825,7612.155
5304.467,7700.042
5305.1089,7772.971
5305.7509,8187.076
5306.3929,8258.69
5307.0349,8536.737
5307.6769,8242.028
5308.3189,8311.542
5308.9608,8260.891
5309.6028,8173.79
5310.2448,8119.885
5310.8868,8438.181
5311.5288,8544.513
5312.1708,8534.426
5312.8127,8375.113
5313.4547,8433.122
5314.0967,8419.799
5314.7387,8225.149
5315.3807,8226.111
5316.0226,8274.385
5316.6646,8173.919
5317.3066,8305.418
5317.9486,8431.965
5318.5906,8316.325
5319.2326,8275.372
5319.8745,8239.313
5320.5165,8211.01
5321.1585,8321.261
5321.8005,8134.604
5322.4425,7871.003
5323.0845,7446.121
5323.7264,7505.79
5324.3684,7480.03
5325.0104,7329.653
5325.6524,6830.779
5326.2944,7041.57
5326.9363,6809.082
5327.5783,6401.937
5328.2203,6526.251
5328.8623,6274.679
5329.5043,5979.003
5330.1463,6040.873
5330.7882,6144.956
5331.4302,6586.658
5332.0722,7153.742
5332.7142,7714.668
5333.3562,8133.384
5333.9982,8071.182
5334.6401,8051.302
5335.2821,8226.766
5335.9241,8305.951
5336.5661,8332.722
5337.2081,8407.58
5337.85,8302.091
5338.492,7947.251
5339.134,7858.03
5339.776,7715.886
5340.418,7504.304
5341.06,7521.752
5341.7019,7384.79
5342.3439,7293.418
5342.9859,7428.417
5343.6279,7477.564
5344.2699,7748.472
5344.9118,7967.134
5345.5538,8151.66
5346.1958,8039.114
5346.8378,7792.255
5347.4798,7591.768
5348.1218,7548.032
5348.7637,7814.861
5349.4057,7817.49
5350.0477,7813.091
5350.6897,7756.202
5351.3317,7769.898
5351.9737,8095.573
5352.6156,8253.227
5353.2576,8324.453
5353.8996,8512.312
5354.5416,8763.069
5355.1836,8832.544
5355.8255,8844.513
5356.4675,8972.006
5357.1095,8959.08
5357.7515,9082.704
5358.3935,9006.588
5359.0355,8908.605
5359.6774,9245.649
5360.3194,9175.726
5360.9614,9158.004
5361.6034,8909.068
5362.2454,8903.654
5362.8874,8925.774
5363.5293,8716.064
5364.1713,8526.071
5364.8133,8266.217
5365.4553,8176.937
5366.0973,8216.562
5366.7392,8226.046
5367.3812,8242.405
5368.0232,8030.635
5368.6652,7952.258
5369.3072,7978.612
5369.9492,7635.514
5370.5911,7430.02
5371.2331,7278.105
5371.8751,6897.882
5372.5171,6809.841
5373.1591,7223.511
5373.801,7518.73
5374.443,7609.179
5375.085,7985.59
5375.727,8780.958
5376.369,8708.439
5377.011,8984.828
5377.6529,9088.524
5378.2949,8822.658
5378.9369,8845.882
5379.5789,8816.628
5380.2209,8678.149
5380.8629,9114.998
5381.5048,8906.127
5382.1468,8895.292
5382.7888,8715.616
5383.4308,8662.281
5384.0728,8694.94
5384.7147,8674.13
5385.3567,8570.164
5385.9987,8060.903
5386.6407,6276.405
5387.2827,7266.907
5387.9247,8760.38
5388.5666,8794.821
5389.2086,8816.48
5389.8506,8896.21
5390.4926,8601.398
5391.1346,8356.984
5391.7766,8399.192
5392.4185,8210.063
5393.0605,8121.652
5393.7025,8143.171
5394.3445,8134.274
5394.9865,8009.478
5395.6284,7895.897
5396.2704,7627.472
5396.9124,7565.06
5397.5544,7522.304
5398.1964,7620.736
5398.8384,7551.347
5399.4803,7510.774
5400.1223,7774.125
5400.7643,7831.771
5401.4063,8388.841
5402.0483,8465.278
5402.6902,8307.092
5403.3322,8315.371
5403.9742,8030.7
5404.6162,7803.74
5405.2582,7716.3
5405.9002,7387.456
5406.5421,7135.679
5407.1841,7122.404
5407.8261,7244.711
5408.4681,7419.519
5409.1101,7448.973
5409.7521,7568.925
5410.394,7942.381
5411.036,8100.832
5411.678,7985.465
5412.32,7901.657
5412.962,8065.114
5413.6039,8467.161
5414.2459,8696.201
5414.8879,8772.679
5415.5299,9009.026
5416.1719,9083.901
5416.8139,9048.734
5417.4558,9110.378
5418.0978,8951.964
5418.7398,9386.073
5419.3818,9468.431
5420.0238,9475.832
5420.6658,9395.209
5421.3077,9207.595
5421.9497,9076.628
5422.5917,8959.09
5423.2337,8731.951
5423.8757,8695.229
5424.5176,8907.576
5425.1596,8995.833
5425.8016,8924.065
5426.4436,8874.585
5427.0856,8819.571
5427.7276,8821.642
5428.3695,8907.971
5429.0115,8794.522
5429.6535,8644.691
5430.2955,8355.339
5430.9375,8220.725
5431.5795,7814.447
5432.2214,7810.396
5432.8634,8173.901
5433.5054,8119.306
5434.1474,8266.723
5434.7894,8343.094
5435.4313,7988.524
5436.0733,8191.936
5436.7153,8303.18
5437.3573,8447.979
5437.9993,8687.452
5438.6413,8943.82
5439.2832,8913.017
5439.9252,9400.146
5440.5672,9699.447
5441.2092,9771.378
5441.8512,9821.943
5442.4931,9900.654
5443.1351,9765.679
5443.7771,9404.331
5444.4191,9187.627
5445.0611,8956.104
5445.7031,8808.606
5446.345,8606.51
5446.987,8265.242
5447.629,7917.824
5448.271,7912.939
5448.913,8353.054
5449.555,8567.426
5450.1969,8624.782
5450.8389,9008.424
5451.4809,9347.947
5452.1229,9511.959
5452.7649,9497.734
5453.4068,9165.389
5454.0488,8859.278
5454.6908,8375.326
5455.3328,8663.385
5455.9748,8503.673
5456.6168,8310.352
5457.2587,8119.461
5457.9007,8340.907
5458.5427,8550.897
5459.1847,8905.765
5459.8267,9357.564
5460.4687,9179.074
5461.1106,9120.667
5461.7526,9214.8
5462.3946,9015.803
5463.0366,8763.733
5463.6786,8524.087
5464.3205,8564.739
5464.9625,8794.85
5465.6045,8880.296
5466.2465,8860.707
5466.8885,8976.506
5467.5305,9079.229
5468.1724,9162.394
5468.8144,9319.02
5469.4564,9299.206
5470.0984,9347.465
5470.7404,9461.878
5471.3823,9172.203
5472.0243,9150.647
5472.6663,9114.885
5473.3083,8880.523
5473.9503,8966.041
5474.5923,8761.911
5475.2342,8690.259
5475.8762,8439.921
5476.5182,8335.37
5477.1602,8497.309
5477.8022,8464.864
5478.4442,8482.635
5479.0861,8525.749
5479.7281,8490.455
5480.3701,8545.064
5481.0121,8858.724
5481.6541,8823.636
5482.296,9082.623
5482.938,8884.158
5483.58,8969.266
5484.222,9172.767
5484.864,9231.018
5485.506,9386.088
5486.1479,9451.036
5486.7899,9497.0
5487.4319,9519.127
5488.0739,9489.001
5488.7159,9298.464
5489.3579,9144.798
5489.9998,9221.141
5490.6418,9345.676
5491.2838,9285.598
5491.9258,9402.042
5492.5678,9685.142
5493.2097,9616.007
5493.8517,9698.626
5494.4937,9728.871
5495.1357,9330.728
5495.7777,9360.481
5496.4197,9392.097
5497.0616,9464.726
5497.7036,9424.668
5498.3456,9176.767
5498.9876,9074.447
5499.6296,9185.371
5500.2716,8930.152
5500.9135,9045.903
5501.5555,9258.85
5502.1975,9115.309
5502.8395,9299.082
5503.4815,9060.854
5504.1234,9028.34
5504.7654,9241.621
5505.4074,9180.304
5506.0494,9070.873
5506.6914,9063.258
5507.3334,9152.382
5507.9753,9105.939
5508.6173,8995.417
5509.2593,9126.728
5509.9013,9360.543
5510.5433,9528.654
5511.1852,9328.705
5511.8272,9053.61
5512.4692,8897.939
5513.1112,8772.014
5513.7532,8477.383
5514.3952,8589.673
5515.0371,8568.214
5515.6791,9026.716
5516.3211,8784.783
5516.9631,9303.281
5517.6051,9070.436
5518.2471,9316.17
5518.889,9872.47
5519.531,9609.158
5520.173,9917.455
5520.815,9973.615
5521.457,10215.71
5522.0989,10359.85
5522.7409,10244.37
5523.3829,10044.32
5524.0249,10069.6
5524.6669,10059.02
5525.3089,9983.649
5525.9508,9775.853
5526.5928,9433.508
5527.2348,9261.361
5527.8768,9042.73
5528.5188,9157.156
5529.1608,9214.118
5529.8027,9042.747
5530.4447,9035.803
5531.0867,9118.666
5531.7287,9349.83
5532.3707,9562.987
5533.0126,9819.597
5533.6546,9801.154
5534.2966,9925.002
5534.9386,9945.56
5535.5806,9608.4
5536.2226,9499.295
5536.8645,9604.596
5537.5065,9752.726
5538.1485,9924.374
5538.7905,9568.211
5539.4325,9817.252
5540.0744,9941.013
5540.7164,9844.561
5541.3584,10036.41
5542.0004,10037.21
5542.6424,10050.19
5543.2844,10099.06
5543.9263,10016.76
5544.5683,9916.48
5545.2103,9712.711
5545.8523,9717.187
5546.4943,9866.949
5547.1363,9937.396
5547.7782,10107.93
5548.4202,10022.08
5549.0622,9890.597
5549.7042,10081.85
5550.3462,10424.96
5550.9881,10446.75
5551.6301,10287.5
5552.2721,10083.9
5552.9141,10086.09
5553.5561,10158.57
5554.1981,10062.96
5554.84,10029.55
5555.482,9913.102
5556.124,9858.928
5556.766,9827.274
5557.408,9925.953
5558.05,9991.983
5558.6919,9972.975
5559.3339,10204.01
5559.9759,10145.25
5560.6179,10005.89
5561.2599,10009.09
5561.9018,9806.234
5562.5438,9533.182
5563.1858,9775.744
5563.8278,9715.565
5564.4698,9495.268
5565.1118,9537.489
5565.7537,9654.958
5566.3957,9428.801
5567.0377,9128.85
5567.6797,9361.626
5568.3217,9294.714
5568.9636,9186.677
5569.6056,9388.51
5570.2476,9302.132
5570.8896,9365.2
5571.5316,9228.171
5572.1736,8903.222
5572.8155,9006.746
5573.4575,9078.804
5574.0995,9330.299
5574.7415,9526.797
5575.3835,9311.902
5576.0255,9578.053
5576.6674,9950.096
5577.3094,9792.959
5577.9514,9867.893
5578.5934,9919.859
5579.2354,9938.277
5579.8773,9835.164
5580.5193,10038.31
5581.1613,9951.884
5581.8033,9659.573
5582.4453,10037.88
5583.0873,10034.4
5583.7292,10074.42
5584.3712,9531.037
5585.0132,9575.362
5585.6552,9456.743
5586.2972,9183.522
5586.9392,9086.3
5587.5811,8662.766
5588.2231,8177.759
5588.8651,8330.955
5589.5071,8050.89
5590.1491,8231.769
5590.791,8564.385
5591.433,8627.535
5592.075,8797.75
5592.717,8949.872
5593.359,8971.995
5594.001,9337.914
5594.6429,9334.641
5595.2849,9377.34
5595.9269,9383.162
5596.5689,9205.016
5597.2109,9348.059
5597.8529,9543.308
5598.4948,9562.218
5599.1368,9461.044
5599.7788,9146.414
5600.4208,9037.754
5601.0628,8958.45
5601.7047,8749.268
5602.3467,8822.001
5602.9887,8948.148
5603.6307,9059.28
5604.2727,9107.279
5604.9147,9361.317
5605.5566,9977.399
5606.1986,9812.61
5606.8406,9978.977
5607.4826,10150.83
5608.1246,10387.84
5608.7665,10454.22
5609.4085,10208.35
5610.0505,10348.71
5610.6925,10535.56
5611.3345,10302.02
5611.9765,10308.94
5612.6184,10595.9
5613.2604,10150.79
5613.9024,9760.438
5614.5444,9696.916
5615.1864,9491.818
5615.8284,9194.107
5616.4703,9240.229
5617.1123,8984.506
5617.7543,8706.472
5618.3963,9060.369
5619.0383,9235.47
5619.6802,9448.365
5620.3222,9670.699
5620.9642,9922.487
5621.6062,9951.453
5622.2482,10140.56
5622.8902,9850.077
5623.5321,9672.22
5624.1741,9697.074
5624.8161,9607.454
5625.4581,9512.029
5626.1001,9423.457
5626.7421,9366.321
5627.384,9399.623
5628.026,9589.614
5628.668,9835.837
5629.31,10001.37
5629.952,10027.82
5630.5939,10145.18
5631.2359,9948.857
5631.8779,10183.07
5632.5199,10476.33
5633.1619,10579.4
5633.8039,10136.73
5634.4458,10210.19
5675.5327,10045.31
5676.1747,10246.75
5676.8167,10186.32
5677.4586,10124.7
5678.1006,10205.31
5678.7426,10359.48
5679.3846,10487.36
5680.0266,10299.5
5680.6686,9927.732
5681.3105,9619.74
5681.9525,9765.778
5682.5945,10033.64
5683.2365,9842.914
5683.8785,9722.459
5684.5205,9772.363
5685.1624,9722.988
5685.8044,9788.992
5686.4464,9815.354
5687.0884,9794.344
5687.7304,9781.558
5688.3723,9443.825
5689.0143,9384.207
5689.6563,9283.821
5690.2983,9454.241
5690.9403,9906.636
5691.5823,9980.991
5692.2242,10159.17
5692.8662,10156.19
5693.5082,10243.94
5694.1502,10387.51
5694.7922,10025.61
5695.4342,10140.71
5696.0761,10367.31
5696.7181,10470.6
5697.3601,10422.21
5698.0021,10000.15
5698.6441,10103.28
5699.286,9963.921
5699.928,9936.717
5700.57,9855.446
5701.212,9505.312
5701.854,9510.038
5702.496,9599.387
5703.1379,9690.584
5703.7799,9728.533
5704.4219,9500.008
5705.0639,9553.6
5705.7059,9530.354
5706.3478,9671.529
5706.9898,9660.611
5707.6318,9473.156
5708.2738,9248.661
5708.9158,9049.842
5709.5578,9044.525
5710.1997,8861.624
5710.8417,8899.682
5711.4837,9141.486
5712.1257,9127.257
5712.7677,9149.438
5713.4097,9223.976
5714.0516,9416.68
5714.6936,9399.542
5715.3356,9560.769
5715.9776,9974.425
5716.6196,10248.58
5717.2615,10275.66
5717.9035,10077.88
5718.5455,9980.17
5719.1875,10087.01
5719.8295,10220.99
5720.4715,10358.81
5721.1134,10366.64
5721.7554,10521.41
5722.3974,10411.63
5723.0394,10553.34
5723.6814,10510.49
5724.3234,10461.46
5724.9653,10631.84
5725.6073,10428.37
5726.2493,10378.88
5726.8913,10320.06
5727.5333,10474.52
5728.1752,9939.11
5728.8172,10126.71
5729.4592,10067.42
5730.1012,10430.28
5730.7432,10151.66
5731.3852,10206.06
5732.0271,10332.34
5732.6691,9992.424
5733.3111,10346.0
5733.9531,10172.11
5734.5951,10089.66
5735.237,10133.09
5735.879,10117.34
5736.521,10116.74
5737.163,10168.9
5737.805,10102.18
5738.447,10363.95
5739.0889,10461.3
5739.7309,10435.91
5740.3729,10319.22
5741.0149,10423.29
5741.6569,10383.57
5742.2989,10326.86
5742.9408,10348.41
5743.5828,10257.25
5744.2248,10314.35
5744.8668,10472.72
5745.5088,10415.76
5746.1507,10310.85
5746.7927,10469.17
5747.4347,10561.95
5748.0767,10321.02
5748.7187,10113.13
5749.3607,10327.03
5750.0026,10248.78
5750.6446,10315.43
5751.2866,10445.18
5751.9286,10338.62
5752.5706,9939.85
5753.2126,9874.12
5753.8545,9994.323
5754.4965,9906.703
5755.1385,9981.293
5755.7805,10246.0
5756.4225,10262.55
5757.0644,10007.17
5757.7064,10093.55
5758.3484,10399.21
5758.9904,10706.71
5759.6324,10609.05
5760.2744,10467.21
5760.9163,10693.28
5761.5583,9879.881
5762.2003,9722.08
5762.8423,9878.642
5763.4843,10208.06
5764.1262,10072.34
5764.7682,9851.265
5765.4102,9925.527
5766.0522,10098.68
5766.6942,10036.45
5767.3362,10161.49
5767.9781,10602.39
5768.6201,10586.19
5769.2621,10511.46
5769.9041,10508.53
5770.5461,10661.16
5771.1881,10498.99
5771.83,10486.09
5772.472,10477.92
5773.114,10473.25
5773.756,10265.57
5774.398,10334.67
5775.0399,10457.85
5775.6819,10080.18
5776.3239,10066.09
5776.9659,10520.92
5777.6079,10494.67
5778.2499,10476.19
5778.8918,10378.55
5779.5338,10269.47
5780.1758,10280.92
5780.8178,10087.16
5781.4598,9995.322
5782.1018,9771.78
5782.7437,9512.225
5783.3857,9276.926
5784.0277,9079.292
5784.6697,9251.574
5785.3117,9430.556
5785.9536,9382.951
5786.5956,9253.947
5787.2376,9521.671
5787.8796,9502.434
5788.5216,9797.645
5789.1636,9922.843
5789.8055,10095.42
5790.4475,10249.74
5791.0895,10311.72
5791.7315,10322.54
5792.3735,10346.77
5793.0155,10199.32
5793.6574,10477.82
5794.2994,10317.57
5794.9414,10347.19
5795.5834,10698.01
5796.2254,10414.95
5796.8673,10204.51
5797.5093,10663.88
5798.1513,10840.34
5798.7933,10484.88
5799.4353,10493.61
5800.0773,10881.04
5800.7192,10798.7
5801.3612,10593.34
5802.0032,10769.02
5802.6452,10841.16
5803.2872,10564.13
5803.9291,10492.12
5804.5711,10567.52
5805.2131,10012.61
5805.8551,10280.87
5806.4971,10408.8
5807.1391,10326.31
5807.781,10360.29
5808.423,10269.36
5809.065,10464.54
5809.707,10513.1
5810.349,10477.63
5810.991,10476.02
5811.6329,10609.92
5812.2749,10443.89
5812.9169,10506.63
5813.5589,10517.6
5814.2009,10327.27
5814.8428,10166.66
5815.4848,10220.23
5816.1268,10286.08
5816.7688,10265.3
5817.4108,10393.49
5818.0528,10249.36
5818.6947,10125.22
5819.3367,10453.36
5819.9787,10706.14
5820.6207,10763.58
5821.2627,10699.03
5821.9047,10643.02
5822.5466,10678.82
5823.1886,10674.12
5823.8306,10694.91
5824.4726,10581.41
5825.1146,10509.8
5825.7565,10455.39
5826.3985,10516.6
5827.0405,10621.0
5827.6825,10639.29
5828.3245,10602.26
5828.9665,10798.22
5829.6084,10707.5
5830.2504,10806.47
5830.8924,10762.33
5831.5344,10493.05
5832.1764,10605.26
5832.8183,10936.15
5833.4603,10732.27
5834.1023,10791.12
5834.7443,10511.65
5835.3863,10800.63
5836.0283,10744.46
5836.6702,10617.5
5837.3122,10480.43
5837.9542,10352.28
5838.5962,10611.03
5839.2382,10741.68
5839.8802,10800.61
5840.5221,10635.59
5841.1641,10459.41
5841.8061,10397.69
5842.4481,10772.4
5843.0901,10970.12
5843.732,10541.32
5844.374,10580.08
5845.016,10547.65
5845.658,10775.04
5846.3,10551.17
5846.942,10422.62
5847.5839,10706.16
5848.2259,10700.23
5848.8679,10326.88
5849.5099,10525.73
5850.1519,10632.1
5850.7939,10554.44
5851.4358,10351.43
5852.0778,10399.5
5852.7198,10300.97
5853.3618,9996.762
5854.0038,10025.04
5854.6457,9933.334
5855.2877,10107.18
5855.9297,10027.46
5856.5717,9704.155
5857.2137,9770.166
5857.8557,9611.669
5858.4976,9436.558
5859.1396,9265.005
5859.7816,9248.888
5860.4236,9417.465
5861.0656,9614.754
5861.7076,9779.566
5862.3495,9921.814
5862.9915,10205.13
5863.6335,10047.89
5864.2755,9928.054
5864.9175,10091.11
5865.5594,9880.561
5866.2014,9786.06
5866.8434,10074.33
5867.4854,10232.16
5868.1274,10294.08
5868.7694,10077.65
5869.4113,9938.995
5870.0533,10165.47
5870.6953,10068.89
5871.3373,10013.0
5871.9793,10152.26
5872.6212,10233.01
5873.2632,10270.17
5873.9052,10108.46
5874.5472,9950.207
5875.1892,10174.05
5875.8312,10310.0
5876.4731,10294.36
5877.1151,10141.21
5877.7571,10028.6
5878.3991,9936.36
5879.0411,9842.791
5879.6831,10028.96
5880.325,9685.655
5880.967,9504.769
5881.609,9550.691
5882.251,9372.789
5882.893,9336.2
5883.5349,9257.853
5884.1769,9151.273
5884.8189,8995.381
5885.4609,8835.559
5886.1029,8677.287
5886.7449,8399.792
5887.3868,8105.872
5888.0288,7392.06
5888.6708,7069.267
5889.3128,6503.41
5889.9548,5903.369
5890.5968,5385.797
5891.2387,5332.078
5891.8807,5280.768
5892.5227,5146.01
5893.1647,5730.361
5893.8067,5981.17
5894.4486,6379.463
5895.0906,6026.531
5895.7326,6209.112
5896.3746,5944.018
5897.0166,5936.342
5897.6586,5712.577
5898.3005,5807.49
5898.9425,6709.776
5899.5845,7231.023
5900.2265,7812.291
5900.8685,8325.606
5901.5104,8557.294
5902.1524,8746.195
5902.7944,9145.946
5903.4364,9325.445
5904.0784,9432.457
5904.7204,9662.69
5905.3623,9536.042
5906.0043,9226.323
5906.6463,9629.035
5907.2883,9582.889
5907.9303,9623.71
5908.5723,9473.828
5909.2142,9544.419
5909.8562,9995.553
5910.4982,9811.349
5911.1402,9754.614
5911.7822,9710.309
5912.4241,9791.485
5913.0661,9758.399
5913.7081,9649.005
5914.3501,9738.017
5914.9921,9462.614
5915.6341,9538.563
5916.276,9569.334
5916.918,9509.236
5917.56,9171.354
5918.202,9483.598
5918.844,9590.776
5919.486,9801.69
5920.1279,9651.485
5920.7699,9786.145
5921.4119,9906.313
5922.0539,9963.494
5922.6959,10148.75
5923.3378,10104.84
5923.9798,9995.545
5924.6218,10087.09
5925.2638,10280.78
5925.9058,10229.8
5926.5478,10230.71
5927.1897,10223.37
5927.8317,10077.89
5928.4737,10009.36
5929.1157,9976.847
5929.7577,9974.425
5930.3996,9631.187
5931.0416,9687.448
5931.6836,9831.948
5932.3256,9746.95
5932.9676,9743.398
5933.6096,9869.357
5934.2515,9979.847
5934.8935,10101.69
5935.5355,10143.4
5936.1775,10142.64
5936.8195,10070.63
5937.4615,9955.947
5938.1034,10002.04
5938.7454,10268.93
5939.3874,10278.47
5940.0294,10136.46
5940.6714,10010.0
5941.3133,9793.297
5941.9553,9785.364
5942.5973,9852.777
5943.2393,9942.558
5943.8813,9832.598
5944.5233,9749.938
5945.1652,10140.24
5945.8072,10336.0
5946.4492,10256.03
5947.0912,10233.55
5947.7332,10257.39
5948.3752,10081.2
5949.0171,10003.05
5949.6591,9819.658
5950.3011,9962.773
5950.9431,10253.37
5951.5851,9975.678
5952.227,9964.925
5952.869,9984.786
5953.511,10094.11
5954.153,10032.97
5954.795,9928.467
5955.437,9952.521
5956.0789,9824.063
5956.7209,9849.445
5957.3629,10030.54
5958.0049,9913.364
5958.6469,9549.001
5959.2889,9864.053
5959.9308,10023.73
5960.5728,10420.66
5961.2148,10443.94
5961.8568,10482.95
5962.4988,10540.59
5963.1407,10470.0
5963.7827,10359.73
5964.4247,10225.15
5965.0667,10306.79
5965.7087,10093.71
5966.3507,10039.72
5966.9926,10104.53
5967.6346,10202.14
5968.2766,9941.153
5968.9186,10200.29
5969.5606,10272.68
5970.2025,10479.36
5970.8445,10400.76
5971.4865,10298.42
5972.1285,10458.06
5972.7705,10396.75
5973.4125,10287.1
5974.0544,10128.73
5974.6964,10261.13
5975.3384,10065.29
5975.9804,10346.57
5976.6224,10318.8
5977.2644,10031.07
5977.9063,10084.01
5978.5483,9999.194
5979.1903,10057.65
5979.8323,10223.1
5980.4743,10074.97
5981.1162,10305.72
5981.7582,10294.51
5982.4002,10510.24
5983.0422,10075.32
5983.6842,10373.3
5984.3262,10168.52
5984.9681,9894.446
5985.6101,9720.312
5986.2521,9786.093
5986.8941,9587.331
5987.5361,10039.02
5988.1781,9678.809
5988.82,10125.43
5989.462,10114.66
5990.104,10235.58
5990.746,10489.71
5991.388,10624.27
5992.0299,10399.21
5992.6719,10120.8
5993.3139,10459.69
5993.9559,10511.74
5994.5979,10531.48
5995.2399,10451.11
5995.8818,10387.91
5996.5238,10395.95
5997.1658,10254.37
5997.8078,10153.64
5998.4498,10070.16
5999.0917,10451.55
5999.7337,10310.05
6000.3757,9911.165
6001.0177,9941.741
6001.6597,9771.869
6002.3017,10193.54
6002.9436,10204.16
6003.5856,10369.18
6004.2276,10246.97
6004.8696,10327.94
6005.5116,10073.68
6006.1536,9953.458
6006.7955,9742.657
6007.4375,10047.71
6008.0795,10347.23
6008.7215,10013.94
6009.3635,9964.694
6010.0054,9851.242
6010.6474,10103.06
6011.2894,9928.862
6011.9314,10074.64
6012.5734,10323.04
6013.2154,10138.01
6013.8573,10315.83
6014.4993,10010.27
6015.1413,10089.31
6015.7833,10236.36
6016.4253,9870.816
6017.0673,10271.56
6017.7092,10040.61
6018.3512,10191.89
6018.9932,10156.33
6019.6352,9570.867
6020.2772,9873.005
6020.9191,10025.71
6021.5611,10037.08
6022.2031,9829.279
6022.8451,10230.04
6023.4871,10186.17
6024.1291,10027.13
6024.771,9986.98
6025.413,10084.79
6026.055,10285.16
6026.697,10300.9
6027.339,10449.12
6027.9809,10515.28
6028.6229,10661.96
6029.2649,10658.6
6029.9069,10527.65
6030.5489,10510.84
6031.1909,10910.87
6031.8328,10921.84
6032.4748,11081.51
6033.1168,10915.86
6033.7588,10736.81
6034.4008,11028.07
6035.0428,11083.64
6035.6847,11248.13
6036.3267,10710.97
6036.9687,10781.16
6037.6107,10595.74
6038.2527,10608.29
6038.8946,10906.26
6039.5366,10731.84
6040.1786,10532.82
6040.8206,10347.38
6041.4626,10533.45
6042.1046,10514.8
6042.7465,10588.29
6043.3885,10683.32
6044.0305,10717.12
6044.6725,10872.34
6045.3145,11023.75
6045.9565,11001.5
6046.5984,10843.13
6047.2404,11320.87
6047.8824,11045.2
6048.5244,10920.21
6049.1664,10738.62
6049.8083,10865.33
6050.4503,10913.77
6051.0923,10843.04
6051.7343,11081.79
6052.3763,10838.45
6053.0183,10657.97
6053.6602,10773.17
6054.3022,10689.66
6054.9442,10710.69
6055.5862,10818.26
6056.2282,10837.7
6056.8702,10788.41
6057.5121,10792.01
6058.1541,10730.42
6058.7961,10867.94
6059.4381,10863.78
6060.0801,10739.94
6060.722,10966.13
6061.364,11015.54
6062.006,10974.12
6062.648,10699.38
6063.29,10704.38
6063.932,10643.95
6064.5739,10409.8
6065.2159,10284.51
6065.8579,10368.2
6066.4999,10187.66
6067.1419,10465.36
6067.7838,10316.03
6068.4258,10546.26
6069.0678,10900.32
6069.7098,11423.99
6070.3518,11490.21
6070.9938,11246.4
6071.6357,10948.72
6072.2777,11112.25
6072.9197,10941.81
6073.5617,10997.75
6074.2037,11384.57
6074.8457,11146.35
6075.4876,11059.92
6076.1296,11053.57
6076.7716,10857.32
6077.4136,10803.97
6078.0556,11048.83
6078.6975,10618.64
6079.3395,10719.18
6079.9815,10556.1
6080.6235,10487.56
6081.2655,10360.59
6081.9075,10451.94
6082.5494,10404.04
6083.1914,10287.77
6083.8334,10446.19
6084.4754,10668.76
6085.1174,10545.55
6085.7594,10537.98
6086.4013,10442.95
6087.0433,10536.58
6087.6853,10689.08
6088.3273,10652.16
6088.9693,10337.63
6089.6112,10706.86
6090.2532,10841.87
6090.8952,10805.89
6091.5372,10177.01
6092.1792,10434.66
6092.8212,10423.55
6093.4631,10370.87
6094.1051,10428.9
6094.7471,10701.0
6095.3891,10824.24
6096.0311,10794.67
6096.673,10905.32
6097.315,10710.47
6097.957,10898.1
6098.599,10824.39
6099.241,11137.35
6099.883,10844.08
6100.5249,10855.04
6101.1669,10479.43
6101.8089,10214.96
6102.4509,9954.058
6103.0929,9627.552
6103.7349,9569.346
6104.3768,9661.735
6105.0188,9544.533
6105.6608,10007.24
6106.3028,9972.528
6106.9448,10564.05
6107.5867,10682.05
6108.2287,10594.23
6108.8707,10499.5
6109.5127,10876.43
6110.1547,10692.74
6110.7967,10893.2
6111.4386,10634.37
6112.0806,10828.19
6112.7226,10741.05
6113.3646,11075.41
6114.0066,10816.93
6114.6486,10773.06
6115.2905,11148.53
6115.9325,10905.53
6116.5745,10918.73
6117.2165,10783.74
6117.8585,10931.11
6118.5004,10674.68
6119.1424,10652.29
6119.7844,10523.62
6120.4264,10210.21
6121.0684,10077.25
6121.7104,9673.089
6122.3523,9458.431
6122.9943,9392.663
6123.6363,9236.438
6124.2783,9059.011
6124.9203,9590.107
6125.5622,9862.168
6126.2042,10034.74
6126.8462,10689.62
6127.4882,10583.08
6128.1302,10505.9
6128.7722,10628.74
6129.4141,10612.33
6130.0561,10748.73
6130.6981,10724.81
6131.3401,11015.94
6131.9821,11262.55
6132.6241,10793.12
6133.266,10861.06
6133.908,10809.57
6134.55,10548.14
6135.192,10628.79
6135.834,10272.38
6136.4759,10160.28
6137.1179,9973.358
6137.7599,9678.171
6138.4019,9737.132
6139.0439,9311.101
6139.6859,9435.491
6140.3278,9736.308
6140.9698,9972.184
6141.6118,10615.42
6142.2538,10782.48
6142.8958,10549.98
6143.5378,10795.45
6144.1797,10867.94
6144.8217,10707.15
6145.4637,11030.27
6146.1057,10748.6
6146.7477,10890.94
6147.3896,10921.92
6148.0316,10999.67
6148.6736,10984.8
6149.3156,11025.66
6149.9576,10812.54
6150.5996,10828.09
6151.2415,10588.82
6151.8835,10526.08
6152.5255,10557.79
6153.1675,10640.26
6153.8095,10746.96
6154.4515,10570.46
6155.0934,10560.97
6155.7354,10430.39
6156.3774,10501.94
6157.0194,10357.74
6157.6614,10058.29
6158.3033,10419.47
6158.9453,10270.55
6159.5873,10070.13
6160.2293,9565.208
6160.8713,9048.392
6161.5133,8842.115
6162.1552,8347.991
6162.7972,8116.317
6163.4392,7957.413
6164.0812,7974.566
6164.7232,8251.18
6165.3651,8579.725
6166.0071,9058.581
6166.6491,9496.757
6167.2911,9635.131
6167.9331,9719.683
6168.5751,9585.812
6169.217,9343.762
6169.859,9422.296
6170.501,9309.122
6171.143,9156.274
6171.785,9320.617
6172.427,9360.212
6173.0689,9482.921
6173.7109,10050.9
6174.3529,10489.85
6174.9949,10544.32
6175.6369,10507.99
6176.2788,10407.56
6176.9208,10298.94
6177.5628,10462.11
6178.2048,10506.63
6178.8468,10653.87
6179.4888,10743.81
6180.1307,10663.33
6180.7727,10646.89
6181.4147,10414.91
6182.0567,10449.36
6182.6987,10720.77
6183.3407,10656.25
6183.9826,10838.19
6184.6246,10712.81
6185.2666,10683.53
6185.9086,10401.51
6186.5506,10547.41
6187.1925,10368.24
6187.8345,10657.55
6188.4765,10363.91
6189.1185,10188.19
6189.7605,10077.29
6190.4025,10082.27
6191.0444,9721.103
6191.6864,9819.893
6192.3284,9924.443
6192.9704,9924.637
6193.6124,9879.099
6194.2543,10158.53
6194.8963,10366.4
6195.5383,10306.64
6196.1803,10478.57
6196.8223,10713.31
6197.4643,10506.88
6198.1062,10738.82
6198.7482,10738.26
6199.3902,10301.96
6200.0322,10245.19
6200.6742,10106.04
6201.3162,10302.5
6201.9581,10313.8
6202.6001,10435.61
6203.2421,10418.01
6203.8841,10479.09
6204.5261,10802.59
6205.168,10841.74
6205.81,10497.79
6206.452,10717.2
6207.094,10668.28
6207.736,10976.56
6208.378,11061.89
6209.0199,10957.82
6209.6619,10813.0
6210.3039,10808.72
6210.9459,10812.71
6211.5879,10737.31
6212.2299,10010.65
6212.8718,10387.69
6213.5138,10089.92
6214.1558,9913.422
6214.7978,9930.537
6215.4398,9702.599
6216.0817,9432.024
6216.7237,9833.162
6217.3657,9652.475
6218.0077,9766.068
6218.6497,9793.82
6219.2917,10107.59
6219.9336,10169.16
6220.5756,9569.896
6221.2176,9349.192
6221.8596,9932.532
6222.5016,10294.82
6223.1435,10117.49
6223.7855,10036.16
6224.4275,10121.01
6225.0695,10170.37
6225.7115,10219.25
6226.3535,10232.01
6226.9954,10345.34
6227.6374,10173.5
6228.2794,9938.356
6228.9214,9982.338
6229.5634,10085.61
6230.2054,9974.072
6230.8473,9690.109
6231.4893,9496.395
6232.1313,9320.749
6232.7733,9420.635
6233.4153,9462.062
6234.0572,9535.646
6234.6992,9767.423
6235.3412,10167.49
6235.9832,10590.02
6236.6252,10546.93
6237.2672,10331.27
6237.9091,10273.97
6238.5511,10320.08
6239.1931,10185.13
6239.8351,10253.18
6240.4771,10034.54
6241.1191,9782.037
6241.761,9818.792
6242.403,9933.505
6243.045,9677.715
6243.687,9711.38
6244.329,9635.265
6244.9709,9831.687
6245.6129,9617.354
6246.2549,9619.402
6246.8969,9519.422
6247.5389,9975.567
6248.1809,10133.19
6248.8228,9978.37
6249.4648,9979.999
6250.1068,10123.04
6250.7488,10219.12
6251.3908,10449.12
6252.0328,10337.29
6252.6747,10203.32
6253.3167,9999.483
6253.9587,9453.581
6254.6007,9261.418
6255.2427,9705.947
6255.8846,9706.602
6256.5266,9348.346
6257.1686,9372.125
6257.8106,9201.109
6258.4526,9606.076
6259.0946,9246.771
6259.7365,9510.901
6260.3785,9673.905
6261.0205,9630.617
6261.6625,9833.847
6262.3045,10142.34
6262.9464,10087.75
6263.5884,10595.47
6264.2304,10754.99
6264.8724,10450.52
6265.5144,10127.6
6266.1564,10099.18
6266.7983,10391.59
6267.4403,10301.23
6268.0823,10490.9
6268.7243,10364.28
6269.3663,10118.78
6270.0083,10227.83
6270.6502,10486.21
6271.2922,10472.2
6271.9342,10655.95
6272.5762,10795.56
6273.2182,10478.99
6273.8601,10383.82
6274.5021,10748.76
6275.1441,10643.84
6275.7861,10083.09
6276.4281,10132.58
6277.0701,10163.61
6277.712,10022.61
6278.354,10046.41
6278.996,10134.93
6279.638,10004.38
6280.28,10131.51
6280.922,10270.62
6281.5639,10104.33
6282.2059,9868.172
6282.8479,9863.103
6283.4899,10183.22
6284.1319,10327.33
6284.7738,10425.66
6285.4158,10513.29
6286.0578,10684.54
6286.6998,10718.83
6287.3418,10630.23
6287.9838,10789.05
6288.6257,10704.14
6289.2677,10998.69
6289.9097,10771.69
6290.5517,10788.97
6291.1937,10542.19
6291.8356,10425.54
6292.4776,10637.71
6293.1196,10225.24
6293.7616,10439.58
6294.4036,10456.42
6295.0456,10207.01
6295.6875,10463.57
6296.3295,10060.12
6296.9715,10480.84
6297.6135,10210.38
6298.2555,10283.35
6298.8975,10265.42
6299.5394,10365.46
6300.1814,10132.2
6300.8234,10286.33
6301.4654,9987.996
6302.1074,9907.355
6302.7493,10201.84
6303.3913,9682.687
6304.0333,10388.44
6304.6753,9954.795
6305.3173,10180.2
6305.9593,10258.14
6306.6012,10633.31
6307.2432,10532.4
6307.8852,10786.88
6308.5272,10812.99
6309.1692,10795.93
6309.8112,10824.5
6310.4531,10805.79
6311.0951,10881.43
6311.7371,10798.67
6312.3791,10892.58
6313.0211,10805.87
6313.663,10461.12
6314.305,10409.31
6314.947,10443.05
6365.0216,10716.65
6365.6636,10740.42
6366.3056,10788.77
6366.9476,11088.6
6367.5896,11000.86
6368.2315,11091.47
6368.8735,11094.74
6369.5155,11221.31
6370.1575,11384.96
6370.7995,11196.61
6371.4414,11446.39
6372.0834,11428.79
6372.7254,11409.61
6373.3674,11268.0
6374.0094,11275.62
6374.6514,11383.69
6375.2933,11680.56
6375.9353,11759.89
6376.5773,11598.31
6377.2193,11243.71
6377.8613,11110.29
6378.5033,11019.3
6379.1452,11096.52
6379.7872,11197.84
6380.4292,11076.15
6381.0712,10905.33
6381.7132,11032.3
6382.3551,11070.63
6382.9971,10952.76
6383.6391,10977.88
6384.2811,10951.36
6384.9231,11033.35
6385.5651,11245.64
6386.207,11199.93
6386.849,11263.37
6387.491,11300.01
6388.133,11527.22
6388.775,11498.7
6389.4169,11265.97
6390.0589,11033.91
6390.7009,11192.25
6391.3429,11076.46
6391.9849,10982.81
6392.6269,11027.73
6393.2688,11042.95
6393.9108,10655.9
6394.5528,10923.81
6395.1948,10745.96
6395.8368,10623.77
6396.4788,10762.42
6397.1207,11037.86
6397.7627,11200.91
6398.4047,11118.56
6399.0467,11021.33
6399.6887,10929.21
6400.3306,10960.81
6400.9726,10850.9
6401.6146,10573.85
6402.2566,10529.11
6402.8986,10731.04
6403.5406,10840.55
6404.1825,11150.12
6404.8245,11435.05
6405.4665,11316.34
6406.1085,11462.47
6406.7505,11568.21
6407.3925,11563.39
6408.0344,11328.11
6408.6764,11220.07
6409.3184,11254.39
6409.9604,11232.45
6410.6024,11082.25
6411.2443,10982.07
6411.8863,10995.46
6412.5283,11110.14
6413.1703,10958.5
6413.8123,10937.68
6414.4543,11070.31
6415.0962,11362.38
6415.7382,11549.53
6416.3802,11584.74
6417.0222,11290.0
6417.6642,11214.37
6418.3062,11011.21
6418.9481,11006.27
6419.5901,11182.57
6420.2321,11215.74
6420.8741,10774.44
6421.5161,10795.89
6422.158,10944.65
6422.8,11010.97
6423.442,11024.75
6424.084,11137.94
6424.726,11562.25
6425.368,11514.58
6426.0099,11500.34
6426.6519,11750.32
6427.2939,11722.91
6427.9359,11595.89
6428.5779,11658.92
6429.2198,11440.24
6429.8618,11468.46
6430.5038,11310.24
6431.1458,11141.2
6431.7878,11143.78
6432.4298,11100.45
6433.0717,11050.11
6433.7137,10944.4
6434.3557,10979.89
6434.9977,11168.85
6435.6397,11709.64
6436.2817,11877.49
6436.9236,11724.19
6437.5656,11388.19
6438.2076,11073.06
6438.8496,10975.32
6439.4916,10797.62
6440.1335,10599.19
6440.7755,10518.33
6441.4175,10847.02
6442.0595,10880.62
6442.7015,11318.05
6443.3435,11636.22
6443.9854,11931.26
6444.6274,11923.45
6445.2694,12003.51
6445.9114,12054.52
6446.5534,12105.21
6447.1954,11833.43
6447.8373,11580.79
6448.4793,11404.17
6449.1213,11103.79
6449.7633,10933.89
6450.4053,10811.75
6451.0472,10801.58
6451.6892,10767.94
6452.3312,10745.88
6452.9732,10980.08
6453.6152,11153.74
6454.2572,11431.88
6454.8991,11573.08
6455.5411,11437.47
6456.1831,11455.26
6456.8251,11708.71
6457.4671,11599.17
6458.109,11591.33
6458.751,11455.85
6459.393,11868.43
6460.035,11681.03
6460.677,11439.98
6461.319,11167.6
6461.9609,11048.56
6462.6029,11021.1
6463.2449,10920.73
6463.8869,10653.98
6464.5289,10657.67
6465.1709,10715.21
6465.8128,10984.79
6466.4548,11091.37
6467.0968,11472.43
6467.7388,11423.34
6468.3808,11794.45
6469.0227,11717.82
6469.6647,11725.79
6470.3067,11671.84
6470.9487,11283.51
6471.5907,11246.12
6472.2327,11299.43
6472.8746,11358.08
6473.5166,11291.15
6474.1586,11197.9
6474.8006,11250.48
6475.4426,11345.54
6476.0846,11564.22
6476.7265,11565.55
6477.3685,11642.72
6478.0105,11578.39
6478.6525,11499.06
6479.2945,11740.88
6479.9364,11900.14
6480.5784,11673.58
6481.2204,11398.71
6481.8624,11502.02
6482.5044,11211.57
6483.1464,11167.71
6483.7883,11284.62
6484.4303,11279.16
6485.0723,11366.54
6485.7143,11613.23
6486.3563,11551.64
6486.9982,11882.57
6487.6402,11745.99
6488.2822,11914.92
6488.9242,11700.81
6489.5662,11762.93
6490.2082,11751.63
6490.8501,11469.09
6491.4921,11489.74
6492.1341,11329.1
6492.7761,11020.13
6493.4181,10775.34
6494.0601,10453.86
6494.702,10179.11
6495.344,9899.93
6495.986,9819.854
6496.628,9882.339
6497.27,9982.077
6497.9119,10051.81
6498.5539,10163.74
6499.1959,10578.99
6499.8379,10596.83
6500.4799,10762.7
6501.1219,11038.93
6501.7638,11146.02
6502.4058,11335.32
6503.0478,11418.69
6503.6898,11335.77
6504.3318,11536.83
6504.9738,11549.96
6505.6157,12169.46
6506.2577,12197.71
6506.8997,12019.61
6507.5417,11773.11
6508.1837,11875.5
6508.8256,12038.0
6509.4676,12025.91
6510.1096,11687.73
6510.7516,11741.81
6511.3936,11808.72
6512.0356,11880.59
6512.6775,11925.23
6513.3195,11847.76
6513.9615,11609.36
6514.6035,11419.84
6515.2455,11378.46
6515.8875,11437.58
6516.5294,11605.13
6517.1714,11616.89
6517.8134,11314.23
6518.4554,11124.6
6519.0974,11234.44
6519.7393,11360.72
6520.3813,11641.96
6521.0233,11495.72
6521.6653,11865.46
6522.3073,11995.78
6522.9493,11862.8
6523.5912,12127.75
6524.2332,11794.46
6524.8752,11962.29
6525.5172,12005.02
6526.1592,12103.28
6526.8011,12145.84
6527.4431,12325.06
6528.0851,12113.83
6528.7271,12056.25
6529.3691,11732.33
6530.0111,11871.53
6530.653,12112.54
6531.295,11996.8
6531.937,11968.61
6532.579,11953.43
6533.221,11911.5
6533.863,11698.6
6534.5049,11727.97
6535.1469,11802.47
6535.7889,11810.88
6536.4309,12017.79
6537.0729,11877.93
6537.7148,12262.28
6538.3568,12373.73
6538.9988,12193.48
6539.6408,12222.07
6540.2828,12333.8
6540.9248,12490.15
6541.5667,12299.98
6542.2087,12095.24
6542.8507,12160.44
6543.4927,11804.91
6544.1347,11856.63
6544.7767,11682.81
6545.4186,11593.8
6546.0606,11531.85
6546.7026,11606.01
6547.3446,11629.28
6547.9866,11668.59
6548.6285,11599.98
6549.2705,11593.48
6549.9125,11517.59
6550.5545,11669.87
6551.1965,11733.77
6551.8385,11838.48
6552.4804,11903.85
6553.1224,12039.31
6553.7644,11740.54
6554.4064,11348.71
6555.0484,11201.96
6555.6903,11321.32
6556.3323,11447.91
6556.9743,11400.52
6557.6163,11095.5
6558.2583,11682.92
6558.9003,11627.32
6559.5422,11646.05
6560.1842,12013.78
6560.8262,12321.6
6561.4682,12127.48
6562.1102,12080.28
6562.7522,12291.03
6563.3941,12493.14
6564.0361,12592.04
6564.6781,12614.72
6565.3201,12436.99
6565.9621,12427.75
6566.604,12185.07
6567.246,11520.02
6567.888,11233.35
6568.53,11598.56
6569.172,11816.39
6569.814,11752.43
6570.4559,11665.92
6571.0979,11478.92
6571.7399,11305.14
6572.3819,11143.15
6573.0239,11148.63
6573.6659,11093.55
6574.3078,11000.88
6574.9498,11037.24
6575.5918,11277.26
6576.2338,11506.24
6576.8758,11114.51
6577.5177,11455.05
6578.1597,11779.54
6578.8017,12009.4
6579.4437,11922.67
6580.0857,11827.53
6580.7277,11990.39
6581.3696,11845.13
6582.0116,11759.84
6582.6536,11577.42
6583.2956,11556.31
6583.9376,11692.68
6584.5795,11861.62
6585.2215,11889.38
6585.8635,12068.47
6586.5055,11806.03
6587.1475,11837.81
6587.7895,12052.31
6588.4314,12321.93
6589.0734,12051.99
6589.7154,12047.96
6590.3574,12009.85
6590.9994,11660.55
6591.6414,11941.38
6592.2833,11566.05
6592.9253,11399.4
6593.5673,11122.71
6594.2093,11134.29
6594.8513,11019.19
6595.4932,10990.07
6596.1352,10956.62
6596.7772,11102.89
6597.4192,11355.22
6598.0612,11529.76
6598.7032,11611.06
6599.3451,11670.09
6599.9871,11701.28
6600.6291,11673.76
6601.2711,11678.14
6601.9131,11658.55
6602.5551,11614.58
6603.197,11926.49
6603.839,12107.92
6604.481,12204.41
6605.123,11935.11
6605.765,11976.44
6606.4069,11604.26
6607.0489,11560.99
6607.6909,11597.18
6608.3329,11496.69
6608.9749,11444.91
6609.6169,11478.53
6610.2588,11655.54
6610.9008,11649.28
6611.5428,11458.52
6612.1848,11617.03
6612.8268,11890.19
6613.4688,11753.92
6614.1107,11760.36
6614.7527,11893.43
6615.3947,11856.07
6616.0367,12007.52
6616.6787,11864.93
6617.3206,11695.76
6617.9626,11739.63
6618.6046,11896.01
6619.2466,12111.57
6619.8886,12053.29
6620.5306,11651.37
6621.1725,12131.59
6621.8145,11984.04
6622.4565,11885.94
6623.0985,11656.81
6623.7405,11906.92
6624.3824,11836.13
6625.0244,11542.38
6625.6664,11593.55
6626.3084,11761.37
6626.9504,11634.66
6627.5924,11465.47
6628.2343,11659.53
6628.8763,11771.24
6629.5183,11620.37
6630.1603,11476.07
6630.8023,11641.53
6631.4443,11579.56
6632.0862,11344.58
6632.7282,11261.2
6633.3702,11342.37
6634.0122,11210.07
6634.6542,11045.83
6635.2961,11061.38
6635.9381,11320.23
6636.5801,11186.63
6637.2221,11317.63
6637.8641,11322.69
6638.5061,11091.18
6639.148,11399.59
6639.79,11646.37
6640.432,11491.36
6641.074,11461.32
6641.716,11522.98
6642.358,11370.93
6642.9999,11346.57
6643.6419,11383.83
6644.2839,11486.96
6644.9259,11585.74
6645.5679,11417.25
6646.2098,11414.12
6646.8518,11443.87
6647.4938,11434.84
6648.1358,11807.75
6648.7778,11730.84
6649.4198,11610.24
6650.0617,11560.49
6650.7037,11455.13
6651.3457,11463.99
6651.9877,11577.12
6652.6297,11536.55
6653.2716,11616.22
6653.9136,11332.49
6654.5556,11275.51
6655.1976,11416.64
6655.8396,11387.43
6656.4816,11451.7
6657.1235,11503.69
6657.7655,11495.53
6658.4075,11460.21
6659.0495,11519.94
6659.6915,11246.42
6660.3335,11273.31
6660.9754,11716.16
6661.6174,11399.74
6662.2594,11442.29
6662.9014,10869.7
6663.5434,11138.33
6664.1853,10878.53
6664.8273,11014.37
6665.4693,11006.17
6666.1113,10891.43
6666.7533,11029.17
6667.3953,11071.08
6668.0372,11207.74
6668.6792,11282.26
6669.3212,11329.19
6669.9632,11144.49
6670.6052,11226.13
6671.2472,11281.03
6671.8891,11467.16
6672.5311,11680.87
6673.1731,11607.28
6673.8151,11669.18
6674.4571,11612.41
6675.099,11370.2
6675.741,11490.38
6676.383,11383.13
6677.025,11015.61
6677.667,10811.42
6678.309,11004.57
6678.9509,11080.71
6679.5929,11039.45
6680.2349,10977.93
6680.8769,10993.19
6681.5189,10810.12
6682.1609,10833.88
6682.8028,11045.75
6683.4448,11306.13
6684.0868,11150.89
6684.7288,11182.14
6685.3708,11178.92
6686.0127,11051.54
6686.6547,11284.5
6687.2967,11391.8
6687.9387,11316.99
6688.5807,11269.96
6689.2227,11332.29
6689.8646,11469.87
6690.5066,11191.04
6691.1486,11400.16
6691.7906,11336.52
6692.4326,11320.49
6693.0745,11341.97
6693.7165,11209.1
6694.3585,11058.78
6695.0005,10916.07
6695.6425,11082.28
6696.2845,11118.05
6696.9264,10896.57
6697.5684,10837.85
6698.2104,10747.8
6698.8524,10773.91
6699.4944,10700.24
6700.1364,11128.03
6700.7783,11075.74
6701.4203,11102.8
6702.0623,11419.02
6702.7043,10999.67
6703.3463,11012.43
6703.9882,11255.04
6704.6302,11061.3
6705.2722,11096.46
6705.9142,10943.18
6706.5562,11064.62
6707.1982,11015.52
6707.8401,10899.16
6708.4821,10886.6
6709.1241,10894.46
6709.7661,11285.03
6710.4081,11353.68
6711.0501,11188.32
6711.692,10933.62
6712.334,11028.03
6712.976,10757.41
6713.618,10761.24
6714.26,10802.23
6714.9019,10659.17
6715.5439,10871.69
6716.1859,10539.71
6716.8279,10331.46
6717.4699,10088.87
6718.1119,10237.3
6718.7538,10388.14
6719.3958,10490.12
6720.0378,10579.36
6720.6798,10666.23
6721.3218,10756.04
6721.9637,10872.77
6722.6057,11093.66
6723.2477,11108.5
6723.8897,10779.75
6724.5317,10806.08
6725.1737,10763.54
6725.8156,10562.41
6726.4576,10879.34
6727.0996,10834.18
6727.7416,10804.14
6728.3836,10943.67
6729.0256,10853.1
6729.6675,10753.2
6730.3095,10887.92
6730.9515,10845.54
6731.5935,10820.52
6732.2355,10966.48
6732.8774,10838.89
6733.5194,10767.11
6734.1614,10772.58
6734.8034,10722.73
6735.4454,10829.07
6736.0874,10736.06
6736.7293,10815.75
6737.3713,10856.73
6738.0133,10997.55
6738.6553,10838.8
6739.2973,10734.8
6739.9393,10567.24
6740.5812,10603.64
6741.2232,10618.77
6741.8652,10700.62
6742.5072,10475.26
6743.1492,10511.08
6743.7911,10609.43
6744.4331,10711.17
6745.0751,10712.29
6745.7171,10613.19
6746.3591,10450.58
6747.0011,10720.03
6747.643,10718.85
6748.285,10807.42
6748.927,10738.13
6749.569,10524.44
6750.211,10410.2
6750.8529,10486.62
6751.4949,10505.75
6752.1369,10433.16
6752.7789,10374.02
6753.4209,10331.63
6754.0629,10452.71
6754.7048,10529.31
6755.3468,10592.2
6755.9888,10479.42
6756.6308,10398.53
6757.2728,10733.18
6757.9148,10831.65
6758.5567,10876.14
6759.1987,10614.98
6759.8407,10634.3
6760.4827,10866.96
6761.1247,10614.35
6761.7666,10664.13
6762.4086,10530.88
6763.0506,10363.23
6763.6926,10574.12
6764.3346,10813.01
6764.9766,10873.07
6765.6185,10668.62
6766.2605,10391.1
6766.9025,10470.71
6767.5445,10562.08
6768.1865,10430.25
6768.8285,10318.23
6769.4704,10487.75
6770.1124,10434.67
6770.7544,10488.58
6771.3964,10302.35
6772.0384,10381.46
6772.6803,10534.71
6773.3223,10317.73
6773.9643,10278.32
6774.6063,10490.87
6775.2483,10663.61
6775.8903,10731.93
6776.5322,10553.86
6777.1742,10722.17
6777.8162,10643.47
6778.4582,10679.65
6779.1002,10725.34
6779.7422,10737.45
6780.3841,10734.49
6781.0261,10705.25
6781.6681,10776.0
6782.3101,10916.11
6782.9521,10413.03
6783.594,10387.69
6784.236,10396.46
6784.878,10046.18
6785.52,10148.11
6786.162,10039.37
6786.804,10313.42
6787.4459,10370.71
6788.0879,10403.64
6788.7299,10409.05
6789.3719,10518.34
6790.0139,10459.95
6790.6558,10468.51
6791.2978,10471.69
6791.9398,10470.26
6792.5818,10561.27
6793.2238,10447.8
6793.8658,10737.83
6794.5077,10047.59
6795.1497,10366.12
6795.7917,9970.367
6796.4337,10323.05
6797.0757,10065.39
6797.7177,10235.24
6798.3596,10417.32
6799.0016,10584.75
6799.6436,10549.38
6800.2856,10343.23
6800.9276,10385.0
6801.5695,10418.34
6802.2115,10439.3
6802.8535,10526.09
6803.4955,10562.28
6804.1375,10278.49
6804.7795,10489.25
6805.4214,10261.5
6806.0634,10461.81
6806.7054,10062.98
6807.3474,10431.65
6807.9894,10567.82
6808.6314,10149.21
6809.2733,10066.62
6809.9153,10172.08
6810.5573,10267.54
6811.1993,10215.52
6811.8413,10299.7
6812.4832,10417.93
6813.1252,10389.53
6813.7672,10248.08
6814.4092,10180.75
6815.0512,10389.41
6815.6932,10270.4
6816.3351,10105.62
6816.9771,10216.92
6817.6191,10048.84
6818.2611,10135.19
6818.9031,10288.77
6819.545,10295.77
6820.187,10271.92
6820.829,10196.42
6821.471,10253.47
6822.113,10247.97
6822.755,10155.14
6823.3969,10000.73
6824.0389,10252.61
6824.6809,10496.32
6825.3229,10246.79
6825.9649,10348.57
6826.6069,10277.94
6827.2488,10130.69
6827.8908,10351.52
6828.5328,10421.12
6829.1748,10167.15
6829.8168,10137.41
6830.4587,10363.38
6831.1007,10224.47
6831.7427,10124.78
6832.3847,10161.55
6833.0267,10147.62
6833.6687,10131.46
6834.3106,10169.37
6834.9526,10306.7
6835.5946,10042.71
6836.2366,10091.02
6836.8786,10289.96
6837.5206,10156.48
6838.1625,9972.765
6838.8045,10122.39
6839.4465,9914.053
6840.0885,9904.715
6840.7305,9753.989
6841.3724,9782.389
6842.0144,9633.258
6842.6564,9640.204
6843.2984,9585.112
6843.9404,9468.917
6844.5824,9727.061
6845.2243,9957.154
6845.8663,10010.17
6846.5083,9658.829
6847.1503,10034.41
6847.7923,9998.843
6848.4342,10121.76
6849.0762,9867.108
6849.7182,10119.6
6850.3602,10076.28
6851.0022,10164.31
6851.6442,10030.44
6852.2861,9987.755
6852.9281,9697.741
6853.5701,9620.063
6854.2121,9679.581
6854.8541,9615.648
6855.4961,9765.699
6856.138,9711.568
6856.78,9583.688
6857.422,9665.346
6858.064,9708.839
6858.706,9733.717
6859.3479,9786.083
6859.9899,9661.655
6860.6319,9503.971
6861.2739,9496.477
6861.9159,9588.008
6862.5579,9779.342
6863.1998,9717.122
6863.8418,9672.405
6864.4838,9352.03
6865.1258,9206.623
6865.7678,8583.049
6866.4098,8352.078
6867.0517,7977.139
6867.6937,7718.115
6868.3357,7198.193
6868.9777,6752.255
6869.6197,6496.665
6870.2616,6439.531
6870.9036,6626.885
6871.5456,6856.814
6872.1876,7204.665
6872.8296,7159.41
6873.4716,7124.512
6874.1135,7422.631
6874.7555,7451.784
6875.3975,7445.721
6876.0395,7816.66
6876.6815,8048.53
6877.3235,7929.95
6877.9654,8325.327
6878.6074,8618.71
6879.2494,8893.868
6879.8914,9124.946
6880.5334,9189.849
6881.1753,9271.215
6881.8173,9168.399
6882.4593,9113.084
6883.1013,9099.327
6883.7433,8708.304
6884.3853,8531.938
6885.0272,8345.753
6885.6692,8448.435
6886.3112,8544.068
6886.9532,8566.253
6887.5952,8498.772
6888.2371,8428.005
6888.8791,8433.354
6889.5211,8553.851
6890.1631,8515.11
6890.8051,8426.685
6891.4471,8498.997
6892.089,8487.114
6892.731,8843.253
6893.373,8973.593
6894.015,8800.165
6894.657,8437.672
6895.299,8560.394
6895.9409,8717.144
6896.5829,8583.069
6897.2249,8717.251
6897.8669,8806.343
6898.5089,8851.735
6899.1508,8761.797
6899.7928,8788.924
6900.4348,8909.564
6901.0768,8729.274
6901.7188,8781.179
6902.3608,8617.223
6903.0027,8885.599
6903.6447,8703.992
6904.2867,8694.0
6904.9287,8871.557
6905.5707,9036.097
6906.2127,8980.338
6906.8546,9007.047
6907.4966,9049.476
6908.1386,9275.803
6908.7806,9493.391
6909.4226,9305.779
6910.0645,9271.013
6910.7065,9217.423
6911.3485,9332.721
6911.9905,9124.147
6912.6325,9325.538
6913.2745,9285.679
6913.9164,9185.396
6914.5584,8860.267
6915.2004,9026.842
6915.8424,9176.088
6916.4844,9163.441
6917.1263,9087.672
6917.7683,9043.923
6918.4103,9029.125
6919.0523,9285.156
6919.6943,9082.92
6920.3363,8925.853
6920.9782,8866.432
6921.6202,9229.573
6922.2622,9298.028
6922.9042,9292.997
6923.5462,9121.27
6924.1882,9158.789
6924.8301,9052.829
6925.4721,9082.801
6926.1141,9217.524
6926.7561,9117.447
6927.3981,8927.457
6928.04,9081.919
6928.682,9175.985
6929.324,9497.367
6929.966,9312.593
6930.608,9315.709
6931.25,9396.296
6931.8919,9205.247
6932.5339,9303.433
6933.1759,9131.741
6933.8179,9273.191
6934.4599,9332.851
6935.1019,9346.712
6935.7438,9286.99
6936.3858,9399.34
6937.0278,9326.6
6937.6698,9225.866
6938.3118,9146.234
6938.9537,9157.556
6939.5957,8971.729
6940.2377,9108.849
6940.8797,9042.395
6941.5217,8856.697
6942.1637,8955.15
6942.8056,9121.883
6943.4476,9225.811
6944.0896,9313.445
6944.7316,9582.234
6945.3736,9580.468
6946.0155,9261.017
