wavelength,flux
4989.3641,22634.33
4990.0061,22634.52
4990.6481,22634.71
4991.29,22634.88
4991.932,22426.81
4992.574,22238.6
4993.2159,22611.96
4993.8579,22197.98
4994.4999,22351.86
4995.1418,22759.45
4995.7838,22916.25
4996.4258,23085.66
4997.0677,23032.33
4997.7097,23041.99
4998.3517,23496.74
4998.9936,23695.77
4999.6356,23454.43
5000.2776,23254.94
5000.9195,22659.96
5001.5615,22585.56
5002.2035,22102.73
5002.8454,22306.86
5003.4874,22253.05
5004.1294,22811.88
5004.7713,22776.65
5005.4133,22556.8
5006.0553,22428.71
5006.6972,22257.51
5007.3392,22219.59
5007.9812,22014.63
5008.6231,21707.75
5009.2651,21639.89
5009.9071,22112.41
5010.549,22621.01
5011.191,22846.88
5011.833,23084.13
5012.4749,23170.01
5013.1169,22797.71
5013.7589,22555.82
5014.4008,22430.4
5015.0428,21789.16
5015.6848,21453.44
5016.3267,21898.56
5016.9687,21924.77
5017.6107,21566.08
5018.2526,22025.74
5018.8946,22522.5
5019.5366,22564.27
5020.1785,22651.99
5020.8205,22771.13
5021.4625,22604.39
5022.1044,22630.42
5022.7464,22772.94
5023.3884,22924.85
5024.0303,22853.11
5024.6723,22644.97
5025.3143,22620.22
5025.9562,22929.45
5026.5982,23331.3
5027.2402,23415.98
5027.8821,23337.71
5028.5241,23406.9
5029.1661,23450.11
5029.808,23132.77
5030.45,23288.5
5031.092,23307.25
5031.7339,23866.12
5032.3759,24049.46
5033.0179,24421.73
5033.6598,24637.54
5034.3018,24323.67
5034.9438,24260.53
5035.5857,24213.07
5036.2277,23942.89
5036.8697,23875.11
5037.5116,23551.48
5038.1536,23120.82
5038.7956,22886.87
5039.4375,22947.09
5040.0795,23000.35
5040.7215,22802.29
5041.3634,22474.41
5042.0054,22201.96
5042.6474,22063.41
5043.2893,21846.3
5043.9313,21540.28
5044.5733,22001.67
5045.2152,22751.07
5045.8572,24002.05
5046.4992,24461.22
5047.1411,24400.05
5047.7831,24469.0
5048.4251,24517.77
5049.067,24397.82
5049.709,24600.35
5050.351,24121.31
5050.9929,23614.87
5051.6349,23545.79
5052.2769,23317.98
5052.9188,23280.59
5053.5608,23417.46
5054.2028,23818.19
5054.8447,24253.47
5055.4867,24525.53
5056.1287,24826.55
5056.7706,24796.34
5057.4126,24908.73
5058.0546,24811.81
5058.6965,25089.5
5059.3385,24816.16
5059.9805,24938.7
5060.6224,25538.95
5061.2644,25513.66
5061.9064,24961.48
5062.5483,25095.97
5063.1903,25102.87
5063.8323,25056.89
5064.4742,25127.07
5065.1162,24616.48
5065.7582,24526.94
5066.4001,24344.74
5067.0421,24200.58
5067.6841,23790.51
5068.326,23699.88
5068.968,24045.01
5069.61,24242.24
5070.2519,24365.4
5070.8939,24403.62
5071.5359,24427.16
5072.1778,24539.09
5072.8198,24958.21
5073.4618,24860.72
5074.1037,25001.28
5074.7457,25013.07
5075.3877,24549.25
5076.0296,24797.59
5076.6716,24748.29
5077.3136,25022.61
5077.9555,24890.73
5078.5975,24521.98
5079.2395,24461.67
5079.8814,24549.08
5080.5234,24368.77
5081.1654,24046.08
5081.8073,23289.17
5082.4493,23038.18
5083.0913,23355.39
5083.7332,23710.37
5084.3752,24467.21
5085.0172,25004.7
5085.6591,24730.26
5086.3011,24883.65
5086.9431,25155.77
5087.585,25345.35
5088.227,25819.59
5088.869,26175.44
5089.5109,26157.49
5090.1529,25964.73
5090.7949,25878.23
5091.4368,25770.39
5092.0788,26046.18
5092.7208,26015.47
5093.3627,25820.09
5094.0047,26028.88
5094.6467,26424.63
5095.2886,26511.03
5095.9306,26702.38
5096.5726,26506.87
5097.2145,26108.63
5097.8565,25882.76
5098.4985,25687.4
5099.1404,25358.94
5099.7824,25200.19
5100.4244,25294.26
5101.0663,25073.4
5101.7083,24924.79
5102.3503,25016.68
5102.9922,25659.95
5103.6342,25717.95
5104.2762,26416.96
5104.9181,26136.92
5105.5601,26424.68
5106.2021,25787.59
5106.844,25578.35
5107.486,25643.71
5108.128,25375.43
5108.7699,25055.98
5109.4119,24950.36
5110.0539,24823.37
5110.6958,24807.67
5111.3378,25066.16
5111.9798,25265.51
5112.6217,25449.14
5113.2637,25765.93
5113.9057,26018.94
5114.5476,26369.15
5115.1896,26695.28
5115.8316,26743.97
5116.4735,27088.12
5117.1155,26963.87
5117.7575,26850.25
5118.3994,27065.28
5119.0414,27246.53
5119.6834,27538.63
5120.3253,27050.33
5120.9673,27332.52
5121.6093,26925.02
5122.2512,27057.68
5122.8932,26602.09
5123.5352,26365.93
5124.1771,26498.58
5124.8191,26619.54
5125.4611,26206.06
5126.103,25740.71
5126.745,25384.82
5127.387,25381.33
5128.0289,25727.38
5128.6709,25894.85
5129.3129,26037.51
5129.9548,25941.83
5130.5968,25902.73
5131.2388,26251.96
5131.8807,26136.05
5132.5227,26383.05
5133.1647,26234.95
5133.8066,26784.25
5134.4486,26730.95
5135.0906,26724.79
5135.7325,27028.91
5136.3745,26555.96
5137.0165,26365.77
5137.6584,26655.23
5138.3004,26450.42
5138.9424,26487.2
5139.5843,25978.75
5140.2263,25421.35
5140.8683,25220.18
5141.5102,25435.99
5142.1522,25433.59
5142.7942,25314.95
5143.4361,25705.57
5144.0781,26104.19
5144.7201,26117.05
5145.362,26163.53
5146.004,26117.18
5146.646,26423.38
5147.2879,27041.2
5147.9299,27156.62
5148.5719,27296.65
5149.2138,26701.97
5149.8558,26468.31
5150.4978,26754.88
5151.1397,26657.92
5151.7817,26800.73
5152.4237,26704.16
5153.0656,26384.75
5153.7076,26111.63
5154.3496,26274.86
5154.9915,26536.61
5155.6335,26729.16
5156.2755,26771.94
5156.9174,27378.89
5157.5594,28037.96
5158.2014,28244.23
5158.8433,28269.86
5159.4853,28264.44
5160.1273,28632.81
5160.7692,28507.06
5161.4112,28216.33
5162.0532,28768.17
5162.6951,28862.68
5163.3371,28275.82
5163.9791,28520.87
5164.621,28229.81
5165.263,26899.22
5165.905,26721.62
5166.5469,26134.47
5167.1889,25623.5
5167.8309,24598.17
5168.4728,23227.8
5169.1148,22419.84
5169.7568,21834.0
5170.3987,21685.84
5171.0407,21999.5
5171.6827,22675.21
5172.3246,23053.51
5172.9666,22994.48
5173.6086,22684.02
5174.2505,22003.07
5174.8925,21543.78
5175.5345,21946.48
5176.1764,23080.43
5176.8184,25228.39
5177.4604,26699.88
5178.1023,27729.25
5178.7443,28051.22
5179.3863,27802.95
5180.0282,27685.53
5180.6702,27790.69
5181.3122,27465.41
5181.9541,26458.6
5182.5961,25405.69
5183.2381,24663.56
5183.88,23924.6
5184.522,23124.38
5185.164,22352.49
5185.8059,21932.08
5186.4479,22331.33
5187.0899,23467.29
5187.7318,25114.21
5188.3738,27121.35
5189.0158,28419.09
5189.6577,28587.35
5190.2997,28474.31
5190.9417,28219.71
5191.5836,27950.26
5192.2256,27734.71
5192.8676,28178.29
5193.5095,27994.48
5194.1515,27267.68
5194.7935,26647.2
5195.4354,26743.7
5196.0774,27820.81
5196.7194,28592.51
5197.3613,28704.8
5198.0033,28517.97
5198.6453,29005.55
5199.2872,29531.1
5199.9292,29607.69
5200.5712,29770.94
5201.2131,30253.5
5201.8551,30294.09
5202.4971,30058.25
5203.139,29859.18
5203.781,29348.13
5204.423,28806.39
5205.0649,28260.7
5205.7069,27779.65
5206.3489,27805.13
5206.9908,27090.75
5207.6328,26143.3
5208.2748,25869.29
5208.9167,26304.54
5209.5587,26025.42
5210.2007,26956.57
5210.8426,27081.12
5211.4846,27092.86
5212.1266,28506.8
5212.7685,29491.43
5213.4105,29851.12
5214.0525,30612.37
5214.6944,31258.85
5215.3364,31139.69
5215.9784,31164.9
5216.6203,30992.08
5217.2623,30647.27
5217.9043,30388.93
5218.5462,30198.05
5219.1882,30481.56
5219.8302,30839.93
5220.4721,31216.75
5221.1141,31730.61
5221.7561,32100.33
5222.398,32865.09
5223.04,32851.56
5223.682,32860.73
5224.3239,32508.87
5224.9659,31831.12
5225.6079,31331.25
5226.2498,30572.29
5226.8918,30053.78
5227.5338,29560.68
5228.1757,28674.0
5228.8177,28958.2
5229.4597,28768.76
5230.1016,28866.26
5230.7436,30085.97
5231.3856,31396.63
5232.0275,31446.09
5232.6695,31194.54
5233.3115,31323.67
5233.9534,31135.77
5234.5954,30982.49
5235.2374,31097.32
5235.8793,30931.48
5236.5213,31226.46
5237.1633,32219.23
5237.8052,32637.59
5238.4472,33207.35
5239.0892,33472.29
5239.7311,33485.31
5240.3731,33927.32
5241.0151,33786.21
5241.657,33404.13
5242.299,34153.79
5242.941,33595.5
5243.5829,33362.36
5244.2249,33529.51
5244.8669,33287.13
5245.5088,33235.66
5246.1508,33389.86
5246.7928,33353.9
5247.4347,33222.32
5248.0767,33380.95
5248.7187,32969.99
5249.3606,32611.44
5250.0026,32112.23
5250.6446,32214.35
5251.2865,32576.03
5251.9285,32909.4
5252.5705,32874.66
5253.2124,32296.28
5253.8544,32225.75
5254.4964,32263.88
5255.1383,32845.3
5255.7803,33120.62
5256.4223,33565.12
5257.0642,33534.69
5257.7062,33352.37
5258.3482,33244.66
5258.9901,33616.16
5259.6321,34102.35
5260.2741,34446.57
5260.916,34214.05
5261.558,33706.42
5262.2,33135.45
5262.8419,32589.21
5263.4839,32011.79
5264.1259,31293.09
5264.7678,30530.37
5265.4098,29985.66
5266.0518,29905.39
5266.6937,30120.14
5267.3357,23699.17
5267.9777,22929.74
5268.6196,29056.73
5269.2616,28777.64
5269.9036,28797.67
5270.5455,29081.28
5271.1875,29089.48
5271.8295,28670.35
5272.4714,28221.33
5273.1134,28844.58
5273.7554,30253.4
5274.3973,31497.65
5275.0393,32384.1
5275.6813,32620.94
5276.3232,32505.58
5276.9652,32994.96
5277.6072,33235.57
5278.2491,33416.84
5278.8911,33630.39
5279.5331,34206.02
5280.175,34537.71
5280.817,34467.61
5281.459,34286.72
5282.1009,33953.97
5282.7429,33426.74
5283.3849,32915.91
5284.0268,32587.79
5284.6688,32535.48
5285.3108,32684.18
5285.9527,32957.72
5286.5947,33336.47
5287.2367,33885.22
5287.8786,34834.53
5288.5206,35623.14
5289.1626,35771.68
5289.8045,35927.73
5290.4465,35613.59
5291.0885,35863.26
5291.7304,35535.77
5292.3724,35112.57
5293.0144,35289.37
5293.6563,35262.24
5294.2983,35904.59
5294.9403,35170.32
5295.5822,35461.22
5296.2242,34956.94
5296.8662,34739.04
5297.5081,34195.72
5298.1501,33872.86
5298.7921,33806.26
5299.434,32813.27
5300.076,32515.02
5300.718,33017.62
5301.3599,33488.03
5302.0019,34006.56
5302.6439,34551.96
5303.2858,34927.14
5303.9278,34797.22
5304.5698,34667.11
5305.2117,34954.9
5305.8537,35230.79
5306.4957,35813.01
5307.1376,36384.8
5307.7796,35610.91
5308.4216,35584.45
5309.0635,35810.86
5309.7055,35545.88
5310.3475,35455.89
5310.9894,35577.67
5311.6314,36262.66
5312.2734,36109.27
5312.9153,36579.6
5313.5573,36477.27
5314.1993,36568.33
5314.8412,36317.3
5315.4832,36315.54
5316.1252,36192.23
5316.7671,36010.0
5317.4091,36150.69
5318.0511,36221.03
5318.693,36159.91
5319.335,36012.46
5319.977,35785.35
5320.6189,36036.37
5321.2609,36305.3
5321.9029,36192.45
5322.5448,35933.25
5323.1868,35718.11
5323.8288,35363.18
5324.4707,35267.7
5325.1127,34858.34
5325.7547,34214.8
5326.3966,34044.71
5327.0386,32945.8
5327.6806,32595.02
5328.3225,32513.44
5328.9645,32474.37
5329.6065,32168.83
5330.2484,31471.61
5330.8904,31023.76
5331.5324,31617.04
5332.1743,33090.23
5332.8163,34641.8
5333.4583,35593.38
5334.1002,36102.8
5334.7422,36074.54
5335.3842,35797.82
5336.0261,35810.43
5336.6681,36260.19
5337.3101,36503.25
5337.952,36355.3
5338.594,36424.26
5339.236,35990.37
5339.8779,35386.86
5340.5199,34428.51
5341.1619,34028.77
5341.8038,34643.31
5342.4458,34064.4
5343.0878,34136.84
5343.7297,34159.27
5344.3717,34929.7
5345.0137,35647.69
5345.6556,35918.95
5346.2976,35925.39
5346.9396,36304.73
5347.5815,35971.86
5348.2235,35401.36
5348.8655,35146.8
5349.5074,35655.88
5350.1494,35931.67
5350.7914,35862.09
5351.4333,36050.19
5352.0753,36280.27
5352.7173,36735.25
5353.3592,37173.41
5354.0012,37529.02
5354.6432,37537.13
5355.2851,36895.09
5355.9271,37216.79
5356.5691,37407.65
5357.211,37296.32
5357.853,38135.48
5358.495,38491.14
5359.1369,38203.84
5359.7789,38041.75
5360.4209,38295.85
5361.0628,38723.12
5361.7048,37830.2
5362.3468,37952.07
5362.9887,37515.39
5363.6307,37462.18
5364.2727,37472.84
5364.9146,37204.95
5365.5566,36722.76
5366.1986,36510.04
5366.8405,36287.04
5367.4825,36243.0
5368.1245,35747.7
5368.7664,35957.61
5369.4084,36242.49
5370.0504,35663.83
5370.6923,34775.67
5371.3343,34697.54
5371.9763,34671.15
5372.6182,34110.34
5373.2602,33970.45
5373.9022,34134.19
5374.5441,34596.68
5375.1861,35446.74
5375.8281,36728.57
5376.47,37587.41
5377.112,38454.29
5377.754,37937.14
5378.3959,38095.44
5379.0379,37705.58
5379.6799,39014.8
5380.3218,38444.11
5380.9638,38631.03
5381.6058,38204.91
5382.2477,37667.16
5382.8897,37433.34
5383.5317,37360.03
5384.1736,37351.5
5384.8156,37439.95
5385.4576,37355.23
5386.0995,37045.31
5386.7415,37191.87
5387.3835,37468.89
5388.0254,38313.41
5388.6674,38729.97
5389.3094,38375.64
5389.9513,38399.7
5390.5933,38591.99
5391.2353,38311.37
5391.8772,37624.1
5392.5192,37105.8
5393.1612,37048.46
5393.8031,37137.69
5394.4451,37278.09
5395.0871,36767.84
5395.729,36323.24
5396.371,36217.62
5397.013,36196.59
5397.6549,36153.7
5398.2969,36384.3
5398.9389,36162.76
5399.5808,35768.37
5400.2228,35607.1
5400.8648,36276.29
5401.5067,36929.21
5402.1487,37685.59
5402.7907,37733.46
5403.4326,37549.64
5404.0746,37181.89
5404.7166,36971.2
5405.3585,36279.38
5406.0005,35803.42
5406.6425,35347.73
5407.2844,34912.0
5407.9264,34767.03
5408.5684,35101.78
5409.2103,35655.16
5409.8523,36279.53
5410.4943,37011.19
5411.1362,36955.1
5411.7782,36739.16
5412.4202,36435.67
5413.0621,36427.68
5413.7041,37006.88
5414.3461,37984.45
5414.988,38290.73
5415.63,37654.45
5416.272,36624.95
5416.9139,36196.52
5417.5559,36074.95
5418.1979,37443.32
5418.8398,38673.17
5419.4818,39542.12
5420.1238,39672.16
5420.7657,38974.51
5421.4077,39248.96
5422.0497,39453.12
5422.6916,39386.84
5423.3336,38938.51
5423.9756,38732.91
5424.6175,38697.11
5425.2595,38511.49
5425.9015,38040.9
5426.5434,38026.77
5427.1854,38131.87
5427.8274,38245.72
5428.4693,38591.86
5429.1113,38523.52
5429.7533,38435.45
5430.3952,38168.13
5431.0372,37818.05
5431.6792,37257.75
5432.3211,36544.64
5432.9631,36552.5
5433.6051,37556.08
5434.247,38008.5
5434.889,38376.55
5435.531,37872.77
5436.1729,37240.15
5436.8149,37791.04
5437.4569,37284.48
5438.0988,38015.38
5438.7408,39097.98
5439.3828,39871.71
5440.0247,39670.6
5440.6667,40095.51
5441.3087,40103.27
5441.9506,40090.57
5442.5926,40216.63
5443.2346,40080.89
5443.8765,39716.2
5444.5185,39668.23
5445.1605,39574.76
5445.8024,38829.2
5446.4444,38040.26
5447.0864,37675.78
5447.7283,37231.45
5448.3703,36580.16
5449.0123,36475.63
5449.6542,37048.89
5450.2962,37716.92
5450.9382,38848.49
5451.5801,39508.09
5452.2221,40242.92
5452.8641,39985.54
5453.506,40526.17
5454.148,39521.23
5454.79,39148.87
5455.4319,38724.47
5456.0739,38778.86
5456.7159,37909.03
5457.3578,37624.36
5457.9998,37268.41
5458.6418,36564.59
5459.2837,38198.14
5459.9257,39546.13
5460.5677,40373.75
5461.2096,40161.8
5461.8516,40443.71
5462.4936,40041.24
5463.1355,39640.84
5463.7775,39050.97
5464.4195,38967.48
5465.0614,39129.22
5465.7034,38758.46
5466.3454,38705.45
5466.9873,39264.71
5467.6293,39707.44
5468.2713,40108.33
5468.9132,40463.1
5469.5552,40601.75
5470.1972,40274.36
5470.8391,40300.88
5471.4811,40771.85
5472.1231,40410.12
5472.765,40472.03
5473.407,40352.09
5474.049,40499.93
5474.6909,39898.48
5475.3329,39699.34
5475.9749,39043.08
5476.6168,38909.88
5477.2588,38582.23
5477.9008,38858.22
5478.5427,38412.79
5479.1847,37808.22
5479.8267,37794.88
5480.4686,38678.5
5481.1106,39240.06
5481.7526,39501.73
5482.3945,40152.58
5483.0365,39950.01
5483.6785,39557.74
5484.3204,39971.15
5484.9624,40326.27
5485.6044,40466.32
5486.2463,40682.88
5486.8883,40688.04
5487.5303,40562.29
5488.1722,40412.46
5488.8142,40136.87
5489.4562,40019.4
5490.0981,39966.59
5490.7401,40435.98
5491.3821,40622.3
5492.024,40766.91
5492.666,40621.3
5493.308,40971.7
5493.9499,40519.17
5494.5919,40741.23
5495.2339,40993.66
5495.8758,40446.39
5496.5178,39957.52
5497.1598,40804.18
5497.8017,40129.32
5498.4437,39790.22
5499.0857,39531.8
5499.7276,39219.96
5500.3696,38884.12
5501.0116,38935.12
5501.6535,39982.94
5502.2955,40236.29
5502.9375,40298.38
5503.5794,39823.81
5504.2214,39320.39
5504.8634,39335.96
5505.5053,39832.79
5506.1473,40408.65
5506.7893,40075.77
5507.4312,39818.23
5508.0732,40015.04
5508.7152,39917.51
5509.3571,39508.8
5509.9991,39414.13
5510.6411,40089.46
5511.283,40411.66
5511.925,40771.25
5512.567,40759.65
5513.2089,40335.63
5513.8509,40055.56
5514.4929,39872.71
5515.1348,39777.35
5515.7768,39850.05
5516.4188,40042.25
5517.0607,40423.88
5517.7027,40341.46
5518.3447,40562.41
5518.9866,41205.65
5519.6286,41397.61
5520.2706,41716.04
5520.9125,41418.48
5521.5545,41472.51
5522.1965,41642.84
5522.8384,41713.29
5523.4804,42181.92
5524.1224,41857.64
5524.7643,41464.65
5525.4063,41465.55
5526.0483,41481.43
5526.6902,41388.82
5527.3322,41182.62
5527.9742,40687.27
5528.6161,39896.64
5529.2581,39458.59
5529.9001,39439.5
5530.542,39342.91
5531.184,39202.86
5531.826,39452.42
5532.4679,40278.01
5533.1099,41202.32
5533.7519,41770.05
5534.3938,41549.12
5535.0358,41342.23
5535.6778,41845.03
5536.3197,41127.57
5536.9617,41722.02
5537.6037,41261.51
5538.2456,41048.24
5538.8876,41403.99
5539.5296,41404.21
5540.1715,42501.23
5540.8135,41791.44
5541.4555,41587.39
5542.0974,42291.27
5542.7394,42150.88
5543.3814,41931.41
5544.0233,41795.12
5544.6653,42094.8
5545.3073,42114.49
5545.9492,41841.96
5546.5912,42132.26
5547.2332,41816.48
5547.8751,41870.26
5548.5171,42056.03
5549.1591,42145.12
5549.801,42072.7
5550.443,42032.33
5551.085,42154.74
5551.7269,42448.49
5552.3689,42669.41
5553.0109,42719.0
5553.6528,42379.14
5554.2948,42010.45
5554.9368,42305.43
5555.5787,42379.88
5556.2207,42226.92
5556.8627,41947.12
5557.5046,41814.69
5558.1466,42194.84
5558.7886,41632.66
5559.4305,42386.45
5560.0725,42482.76
5560.7145,42425.82
5561.3564,42228.1
5561.9984,42055.72
5562.6404,41934.42
5563.2823,41797.82
5563.9243,42048.48
5564.5663,41968.05
5565.2082,41866.41
5565.8502,41372.03
5566.4922,41446.41
5567.1341,41448.3
5567.7761,41509.48
5568.4181,40930.9
5569.06,40936.09
5569.702,41142.88
5570.344,40922.68
5570.9859,40700.95
5571.6279,40424.18
5572.2699,40131.33
5572.9118,39880.62
5573.5538,40235.56
5574.1958,40612.71
5574.8377,40337.69
5575.4797,40125.07
5576.1217,40213.61
5576.7636,40863.09
5577.4056,41712.76
5578.0476,41782.25
5578.6895,41449.98
5579.3315,41919.33
5579.9735,42308.7
5580.6154,42378.06
5581.2574,42183.97
5581.8994,41961.36
5582.5413,41521.94
5583.1833,41819.19
5583.8253,41348.97
5584.4672,41093.55
5585.1092,41342.77
5585.7512,41321.93
5586.3931,41376.52
5587.0351,40631.8
5587.6771,40226.82
5588.319,39658.16
5588.961,38942.16
5589.603,38058.15
5590.2449,38356.87
5590.8869,38171.17
5591.5289,38652.12
5592.1708,39386.57
5592.8128,40065.36
5593.4548,40254.57
5594.0967,40636.04
5594.7387,40908.22
5595.3807,41245.54
5596.0226,41150.64
5596.6646,40839.24
5597.3066,40566.72
5597.9485,40482.29
5598.5905,40780.57
5599.2325,41120.8
5599.8744,41084.13
5600.5164,40697.87
5601.1584,40313.67
5601.8003,40007.08
5602.4423,39977.54
5603.0843,40505.16
5603.7262,40636.53
5604.3682,40467.77
5605.0102,40178.27
5605.6521,40518.26
5606.2941,41021.24
5606.9361,41887.93
5607.578,42470.74
5608.22,42466.93
5608.862,42821.09
5609.5039,42812.29
5610.1459,42856.21
5610.7879,42312.62
5611.4298,42809.08
5612.0718,43027.77
5612.7138,42929.53
5613.3557,43140.56
5613.9977,42571.95
5614.6397,41680.5
5615.2816,41197.21
5615.9236,41176.8
5616.5656,41141.72
5617.2075,40268.36
5617.8495,39379.84
5618.4915,39142.55
5619.1334,39537.9
5619.7754,41189.47
5620.4174,42003.04
5621.0593,41956.77
5621.7013,42218.88
5622.3433,42488.68
5622.9852,42047.44
5623.6272,41797.59
5624.2692,41835.98
5624.9111,41809.61
5625.5531,42008.03
5626.1951,41651.87
5626.837,41342.2
5627.479,41475.74
5628.121,41144.16
5628.7629,41788.91
5629.4049,42171.31
5630.0469,42466.56
5630.6888,42765.54
5631.3308,42750.44
5631.9728,42505.51
5632.6147,42889.09
5633.2567,43070.82
5633.8987,43291.3
5634.5406,42941.97
5675.6265,41721.24
5676.2685,42125.68
5676.9104,42294.79
5677.5524,42318.92
5678.1944,42434.48
5678.8363,42246.04
5679.4783,41993.48
5680.1203,42021.33
5680.7622,42271.45
5681.4042,42075.1
5682.0462,41660.04
5682.6881,41801.18
5683.3301,41738.37
5683.9721,41649.59
5684.614,41472.51
5685.256,41212.29
5685.898,41445.37
5686.5399,41587.15
5687.1819,41216.86
5687.8239,41404.41
5688.4658,41419.15
5689.1078,41519.2
5689.7498,41217.5
5690.3917,41306.91
5691.0337,40679.46
5691.6757,41622.52
5692.3176,41352.02
5692.9596,41619.07
5693.6016,41745.74
5694.2435,41943.35
5694.8855,42109.58
5695.5275,41268.01
5696.1694,42220.29
5696.8114,41695.97
5697.4534,41357.73
5698.0953,41380.96
5698.7373,42278.61
5699.3793,41749.77
5700.0212,41681.29
5700.6632,41631.24
5701.3052,41519.87
5701.9471,41092.87
5702.5891,41359.66
5703.2311,41861.5
5703.873,41462.58
5704.515,40791.8
5705.157,40754.07
5705.7989,40945.27
5706.4409,41502.3
5707.0829,41373.05
5707.7248,41234.39
5708.3668,41098.83
5709.0088,40624.73
5709.6507,40372.94
5710.2927,40308.66
5710.9347,39975.35
5711.5766,39656.3
5712.2186,39537.93
5712.8606,39223.58
5713.5025,39774.76
5714.1445,40307.28
5714.7865,40595.43
5715.4284,41156.09
5716.0704,41623.77
5716.7124,41489.23
5717.3543,41265.55
5717.9963,41359.02
5718.6383,41434.52
5719.2802,41519.69
5719.9222,41079.92
5720.5642,41399.74
5721.2061,41789.39
5721.8481,41494.72
5722.4901,41778.67
5723.132,42044.01
5723.774,41632.9
5724.416,41968.91
5725.0579,36432.37
5725.6999,39843.59
5726.3419,41444.56
5726.9838,41011.47
5727.6258,41390.94
5728.2678,41141.08
5728.9097,41362.02
5729.5517,41464.61
5730.1937,41185.75
5730.8356,41488.55
5731.4776,41590.39
5732.1196,41486.73
5732.7615,41572.94
5733.4035,41113.65
5734.0455,41393.98
5734.6874,41147.7
5735.3294,41834.11
5735.9714,41608.29
5736.6133,41661.59
5737.2553,41928.04
5737.8973,41556.08
5738.5392,41584.02
5739.1812,41501.87
5739.8232,41569.46
5740.4651,41733.13
5741.1071,41738.66
5741.7491,41618.17
5742.391,41500.81
5743.033,41755.35
5743.675,41614.57
5744.3169,41515.09
5744.9589,41637.19
5745.6009,41611.73
5746.2428,41657.26
5746.8848,41036.73
5747.5268,41322.89
5748.1687,41577.95
5748.8107,41361.14
5749.4527,41345.2
5750.0946,41449.67
5750.7366,41422.26
5751.3786,40925.71
5752.0205,41331.45
5752.6625,40946.18
5753.3045,41071.84
5753.9464,40764.3
5754.5884,40333.91
5755.2304,40111.2
5755.8723,40582.11
5756.5143,40253.55
5757.1563,40380.64
5757.7982,40991.23
5758.4402,41185.59
5759.0822,41759.52
5759.7241,41522.66
5760.3661,41644.38
5761.0081,41396.05
5761.65,41380.77
5762.292,40706.7
5762.934,41045.82
5763.5759,41274.55
5764.2179,40504.36
5764.8599,40952.3
5765.5018,40638.46
5766.1438,40691.09
5766.7858,40841.16
5767.4277,40752.13
5768.0697,41447.64
5768.7117,41265.23
5769.3536,41580.48
5769.9956,41671.18
5770.6376,41628.18
5771.2795,41825.72
5771.9215,41831.71
5772.5635,41420.13
5773.2054,41420.48
5773.8474,41490.9
5774.4894,41490.01
5775.1313,41019.46
5775.7733,40802.75
5776.4153,41006.75
5777.0572,41092.05
5777.6992,41364.18
5778.3412,41325.56
5778.9831,41240.77
5779.6251,41119.85
5780.2671,40990.2
5780.909,40964.2
5781.551,40854.83
5782.193,41020.26
5782.8349,41010.46
5783.4769,40972.77
5784.1189,40934.13
5784.7608,40627.83
5785.4028,40438.87
5786.0448,40631.41
5786.6867,40884.73
5787.3287,40875.12
5787.9707,40645.59
5788.6126,40581.61
5789.2546,40753.94
5789.8966,40998.45
5790.5385,40773.77
5791.1805,40986.09
5791.8225,41376.48
5792.4644,40854.3
5793.1064,40497.8
5793.7484,41035.77
5794.3903,40800.98
5795.0323,41062.0
5795.6743,41534.61
5796.3162,41607.9
5796.9582,41755.53
5797.6002,41240.2
5798.2421,41424.5
5798.8841,41532.6
5799.5261,41384.52
5800.168,41819.91
5800.81,40917.18
5801.452,41412.3
5802.0939,41301.41
5802.7359,41253.12
5803.3779,41531.13
5804.0198,41590.52
5804.6618,41398.98
5805.3038,41693.29
5805.9457,41277.12
5806.5877,40991.56
5807.2297,41291.55
5807.8716,41405.67
5808.5136,41400.89
5809.1556,41699.15
5809.7975,41469.5
5810.4395,41356.11
5811.0815,41539.42
5811.7234,41876.82
5812.3654,41653.32
5813.0074,41667.64
5813.6493,41479.82
5814.2913,41569.3
5814.9333,41594.94
5815.5752,41469.84
5816.2172,41431.63
5816.8592,41178.63
5817.5011,41330.38
5818.1431,41721.45
5818.7851,41686.21
5819.427,41464.05
5820.069,41408.73
5820.711,41624.09
5821.3529,41613.89
5821.9949,41653.05
5822.6369,41689.26
5823.2788,41610.45
5823.9208,41687.19
5824.5628,41629.15
5825.2047,41735.82
5825.8467,41605.7
5826.4887,41916.31
5827.1306,42003.14
5827.7726,41959.92
5828.4146,41821.82
5829.0565,42329.87
5829.6985,42102.84
5830.3405,42299.14
5830.9824,41838.64
5831.6244,41125.75
5832.2664,41594.35
5832.9083,41782.52
5833.5503,41859.3
5834.1923,41913.2
5834.8342,41985.59
5835.4762,41429.71
5836.1182,41627.43
5836.7601,41948.54
5837.4021,41885.05
5838.0441,42237.98
5838.686,41832.9
5839.328,41298.91
5839.97,41809.37
5840.6119,41791.64
5841.2539,41987.75
5841.8959,41842.44
5842.5378,42037.23
5843.1798,42239.12
5843.8218,42205.41
5844.4637,41809.3
5845.1057,42013.99
5845.7477,42059.37
5846.3896,41788.66
5847.0316,41769.19
5847.6736,41864.54
5848.3156,41342.38
5848.9575,41615.33
5849.5995,41469.02
5850.2415,41621.42
5850.8834,41475.94
5851.5254,41631.46
5852.1674,41453.23
5852.8093,41643.08
5853.4513,41624.49
5854.0933,41106.37
5854.7352,41321.24
5855.3772,41258.57
5856.0192,41105.48
5856.6611,40635.68
5857.3031,40389.89
5857.9451,40185.68
5858.587,40472.1
5859.229,40438.83
5859.871,40293.32
5860.5129,39767.43
5861.1549,39602.81
5861.7969,40370.98
5862.4388,40985.58
5863.0808,40826.6
5863.7228,40903.95
5864.3647,41122.1
5865.0067,40920.11
5865.6487,40898.63
5866.2906,40903.7
5866.9326,41216.67
5867.5746,41102.04
5868.2165,40926.02
5868.8585,41029.39
5869.5005,40827.55
5870.1424,41008.26
5870.7844,41339.4
5871.4264,41386.41
5872.0683,41167.69
5872.7103,41342.71
5873.3523,41373.84
5873.9942,41586.39
5874.6362,41559.02
5875.2782,41402.64
5875.9201,41854.4
5876.5621,41499.53
5877.2041,40870.82
5877.846,40962.09
5878.488,41180.43
5879.13,41098.26
5879.7719,40973.7
5880.4139,40974.84
5881.0559,41113.66
5881.6978,40677.8
5882.3398,39950.4
5882.9818,40051.95
5883.6237,40217.44
5884.2657,39823.21
5884.9077,39637.03
5885.5496,39862.44
5886.1916,39222.14
5886.8336,39441.52
5887.4755,39068.0
5888.1175,38573.85
5888.7595,38107.87
5889.4014,36670.05
5890.0434,35925.35
5890.6854,35327.03
5891.3273,34113.81
5891.9693,33666.96
5892.6113,33655.3
5893.2532,33728.62
5893.8952,34747.48
5894.5372,35992.37
5895.1791,36991.85
5895.8211,36210.79
5896.4631,35873.17
5897.105,36101.71
5897.747,35198.19
5898.389,34119.19
5899.0309,33845.3
5899.6729,35062.78
5900.3149,36686.16
5900.9568,37898.82
5901.5988,38456.95
5902.2408,39330.2
5902.8827,39100.74
5903.5247,39346.48
5904.1667,39910.63
5904.8086,40541.47
5905.4506,40752.97
5906.0926,40229.87
5906.7345,40179.84
5907.3765,40445.9
5908.0185,40582.45
5908.6604,40290.27
5909.3024,40048.39
5909.9444,40091.45
5910.5863,40566.82
5911.2283,40617.2
5911.8703,40216.41
5912.5122,39999.07
5913.1542,39495.22
5913.7962,40292.62
5914.4381,40096.02
5915.0801,40116.12
5915.7221,39925.71
5916.364,39490.27
5917.006,39098.64
5917.648,39096.76
5918.2899,39117.8
5918.9319,39222.96
5919.5739,39502.64
5920.2158,39376.03
5920.8578,39014.46
5921.4998,39435.81
5922.1417,39610.9
5922.7837,39911.34
5923.4257,40044.02
5924.0676,39990.78
5924.7096,39940.36
5925.3516,39975.76
5925.9935,40225.17
5926.6355,40651.95
5927.2775,41016.73
5927.9194,41104.82
5928.5614,41028.43
5929.2034,40774.98
5929.8453,40171.36
5930.4873,40033.9
5931.1293,40276.8
5931.7712,40247.43
5932.4132,39965.32
5933.0552,39676.54
5933.6971,39704.68
5934.3391,40051.23
5934.9811,40475.93
5935.623,40941.29
5936.265,40971.98
5936.907,40755.32
5937.5489,40749.59
5938.1909,40477.0
5938.8329,40042.51
5939.4748,39889.48
5940.1168,40032.16
5940.7588,40180.39
5941.4007,40025.71
5942.0427,39614.69
5942.6847,38940.74
5943.3266,39043.47
5943.9686,39502.55
5944.6106,39636.63
5945.2525,39856.8
5945.8945,39986.7
5946.5365,39894.3
5947.1784,39620.32
5947.8204,39472.91
5948.4624,39880.4
5949.1043,39857.81
5949.7463,39494.56
5950.3883,39886.36
5951.0302,39934.59
5951.6722,39554.21
5952.3142,40058.5
5952.9561,40194.06
5953.5981,40143.85
5954.2401,39988.27
5954.882,40076.84
5955.524,39765.7
5956.166,39579.03
5956.8079,39935.29
5957.4499,39782.23
5958.0919,39781.51
5958.7338,39947.05
5959.3758,40025.56
5960.0178,39828.57
5960.6597,39845.39
5961.3017,41069.38
5961.9437,40899.31
5962.5856,41129.22
5963.2276,40964.31
5963.8696,41033.4
5964.5115,40770.39
5965.1535,40947.92
5965.7955,40202.36
5966.4374,40224.61
5967.0794,41021.87
5967.7214,40054.02
5968.3633,39807.37
5969.0053,40491.93
5969.6473,40564.14
5970.2892,40594.58
5970.9312,40808.09
5971.5732,40914.86
5972.2151,40996.28
5972.8571,41247.92
5973.4991,41369.18
5974.141,41299.01
5974.783,40437.78
5975.425,40804.4
5976.0669,40807.22
5976.7089,40314.32
5977.3509,40731.73
5977.9928,40457.61
5978.6348,40100.72
5979.2768,40244.61
5979.9187,39784.71
5980.5607,40639.02
5981.2027,41023.92
5981.8446,40760.98
5982.4866,40731.36
5983.1286,41066.33
5983.7705,40592.02
5984.4125,40408.24
5985.0545,40370.2
5985.6964,40297.96
5986.3384,39938.14
5986.9804,40415.62
5987.6223,40123.83
5988.2643,40289.54
5988.9063,40166.95
5989.5482,40223.61
5990.1902,40387.73
5990.8322,40293.42
5991.4741,40316.9
5992.1161,40525.36
5992.7581,40285.48
5993.4,40497.72
5994.042,40996.95
5994.684,40626.6
5995.3259,40658.39
5995.9679,40938.01
5996.6099,40997.73
5997.2518,40716.49
5997.8938,40778.57
5998.5358,40256.81
5999.1777,40423.31
5999.8197,40343.38
6000.4617,40699.33
6001.1036,40706.03
6001.7456,40518.52
6002.3876,40643.9
6003.0295,40802.58
6003.6715,40478.5
6004.3135,40139.73
6004.9554,40390.77
6005.5974,40277.89
6006.2394,39366.2
6006.8813,40006.72
6007.5233,40143.21
6008.1653,40937.04
6008.8072,39941.14
6009.4492,40144.03
6010.0912,39717.63
6010.7331,39987.67
6011.3751,40333.89
6012.0171,39879.33
6012.659,40508.34
6013.301,40542.29
6013.943,40623.46
6014.5849,40093.91
6015.2269,40843.7
6015.8689,40588.19
6016.5108,40020.96
6017.1528,39904.78
6017.7948,40310.23
6018.4367,40016.8
6019.0787,40258.31
6019.7207,40250.18
6020.3626,40158.76
6021.0046,40275.44
6021.6466,40325.71
6022.2885,39864.25
6022.9305,39949.45
6023.5725,39677.8
6024.2144,39855.07
6024.8564,40194.11
6025.4984,40114.48
6026.1403,40004.79
6026.7823,40326.49
6027.4243,40334.41
6028.0662,40042.05
6028.7082,40660.92
6029.3502,40618.15
6029.9921,40657.73
6030.6341,40742.45
6031.2761,40747.74
6031.918,40659.77
6032.56,41226.45
6033.202,40925.59
6033.8439,40587.33
6034.4859,40817.96
6035.1279,41159.0
6035.7698,41084.77
6036.4118,40771.16
6037.0538,41509.98
6037.6957,41515.73
6038.3377,41590.3
6038.9797,40870.35
6039.6216,41322.68
6040.2636,41256.45
6040.9056,40879.22
6041.5475,41163.8
6042.1895,41431.67
6042.8315,41268.14
6043.4734,41482.39
6044.1154,40821.65
6044.7574,40870.14
6045.3993,40908.19
6046.0413,41040.45
6046.6833,40985.15
6047.3252,41118.46
6047.9672,41125.77
6048.6092,41121.94
6049.2511,41263.79
6049.8931,41361.27
6050.5351,41294.36
6051.177,40941.44
6051.819,41206.75
6052.461,41042.09
6053.1029,41390.62
6053.7449,41583.67
6054.3869,41580.81
6055.0288,40941.23
6055.6708,40982.95
6056.3128,41064.17
6056.9547,40674.51
6057.5967,41076.26
6058.2387,40533.62
6058.8806,40353.85
6059.5226,41043.89
6060.1646,40816.73
6060.8065,40911.77
6061.4485,41215.15
6062.0905,41384.24
6062.7324,41717.96
6063.3744,40932.9
6064.0164,40992.57
6064.6583,40941.06
6065.3003,40913.26
6065.9423,40653.27
6066.5842,40155.78
6067.2262,40474.34
6067.8682,40036.21
6068.5101,40059.45
6069.1521,40341.86
6069.7941,41014.08
6070.436,41317.51
6071.078,41227.7
6071.72,41290.16
6072.3619,41074.09
6073.0039,41123.15
6073.6459,41385.97
6074.2878,41116.34
6074.9298,41156.98
6075.5718,40834.98
6076.2137,40818.97
6076.8557,41074.4
6077.4977,40733.08
6078.1396,40889.39
6078.7816,40628.36
6079.4236,40661.05
6080.0655,40433.85
6080.7075,40204.17
6081.3495,40723.17
6081.9914,40679.92
6082.6334,40857.77
6083.2754,40941.42
6083.9173,41101.83
6084.5593,40709.28
6085.2013,40878.69
6085.8432,40877.32
6086.4852,40604.3
6087.1272,41162.9
6087.7691,40618.51
6088.4111,40654.68
6089.0531,40619.34
6089.695,40518.34
6090.337,40646.45
6090.979,40853.2
6091.6209,40760.02
6092.2629,40462.52
6092.9049,41030.1
6093.5468,40533.77
6094.1888,40411.13
6094.8308,41122.04
6095.4727,40956.6
6096.1147,40685.32
6096.7567,40439.8
6097.3986,40950.13
6098.0406,40856.54
6098.6826,40914.19
6099.3245,40935.54
6099.9665,41161.94
6100.6085,41036.24
6101.2504,40383.08
6101.8924,39909.12
6102.5344,40238.67
6103.1763,39809.37
6103.8183,39493.46
6104.4603,38701.76
6105.1022,38427.82
6105.7442,38537.41
6106.3862,38887.27
6107.0281,39367.2
6107.6701,41102.01
6108.3121,40859.17
6108.954,41222.92
6109.596,41262.18
6110.238,40758.69
6110.8799,40430.86
6111.5219,40961.62
6112.1639,40768.04
6112.8058,41003.04
6113.4478,41384.52
6114.0898,40936.99
6114.7317,40977.08
6115.3737,40839.32
6116.0157,41031.59
6116.6576,41157.82
6117.2996,40854.57
6117.9416,41001.23
6118.5835,40593.48
6119.2255,40886.89
6119.8675,41206.56
6120.5094,40844.88
6121.1514,40579.21
6121.7934,39453.98
6122.4353,38962.75
6123.0773,38557.07
6123.7193,38429.89
6124.3612,38332.66
6125.0032,37999.44
6125.6452,38645.31
6126.2871,39167.65
6126.9291,39544.33
6127.5711,40106.27
6128.213,40811.07
6128.855,39977.99
6129.497,39587.73
6130.1389,40051.26
6130.7809,40701.81
6131.4229,40741.14
6132.0648,41035.36
6132.7068,40882.39
6133.3488,41317.21
6133.9907,40364.08
6134.6327,40352.6
6135.2747,40976.77
6135.9166,40545.68
6136.5586,39623.7
6137.2006,39508.7
6137.8425,38775.89
6138.4845,38974.84
6139.1265,38557.96
6139.7684,38324.27
6140.4104,37987.77
6141.0524,38091.79
6141.6943,38937.3
6142.3363,40024.5
6142.9783,40585.18
6143.6202,40052.21
6144.2622,40278.37
6144.9042,39956.71
6145.5461,40271.96
6146.1881,40008.7
6146.8301,40789.23
6147.472,40870.73
6148.114,41152.43
6148.756,40797.18
6149.3979,40565.71
6150.0399,40685.89
6150.6819,40810.65
6151.3238,40957.61
6151.9658,40760.98
6152.6078,40580.31
6153.2497,40153.09
6153.8917,40280.31
6154.5337,40505.27
6155.1756,40237.77
6155.8176,40540.52
6156.4596,40672.31
6157.1015,40742.89
6157.7435,40820.22
6158.3855,40702.6
6159.0274,40164.62
6159.6694,40198.73
6160.3114,39990.59
6160.9533,39520.55
6161.5953,39059.18
6162.2373,38251.79
6162.8792,37678.39
6163.5212,37482.37
6164.1632,37174.44
6164.8051,36714.52
6165.4471,36900.08
6166.0891,37242.97
6166.731,37887.05
6167.373,38828.47
6168.015,39498.5
6168.6569,39584.38
6169.2989,39252.4
6169.9409,39049.12
6170.5828,38870.9
6171.2248,39068.32
6171.8668,38855.34
6172.5087,38492.02
6173.1507,38560.29
6173.7927,39535.61
6174.4346,40037.98
6175.0766,40325.95
6175.7186,40501.36
6176.3605,40603.8
6177.0025,40608.95
6177.6445,40550.52
6178.2864,40731.61
6178.9284,40643.05
6179.5704,40649.6
6180.2123,40407.77
6180.8543,40208.08
6181.4963,40491.18
6182.1382,40810.8
6182.7802,40903.21
6183.4222,40838.52
6184.0641,40635.06
6184.7061,40489.19
6185.3481,40858.87
6185.99,40816.54
6186.632,41044.64
6187.274,41103.87
6187.9159,40808.63
6188.5579,40487.52
6189.1999,40764.68
6189.8418,40852.21
6190.4838,40168.52
6191.1258,39924.11
6191.7677,39983.82
6192.4097,39846.39
6193.0517,39231.59
6193.6936,39529.54
6194.3356,39740.44
6194.9776,39613.57
6195.6195,39649.67
6196.2615,40679.7
6196.9035,40805.52
6197.5454,41050.89
6198.1874,40540.88
6198.8294,40664.4
6199.4713,40592.13
6200.1133,40409.23
6200.7553,40782.8
6201.3972,40858.46
6202.0392,40155.47
6202.6812,40216.24
6203.3231,39901.62
6203.9651,40275.84
6204.6071,41134.23
6205.249,40575.41
6205.891,40844.14
6206.533,41480.36
6207.1749,41153.8
6207.8169,40771.05
6208.4589,40292.93
6209.1008,40872.88
6209.7428,40214.54
6210.3848,41108.41
6211.0267,40922.71
6211.6687,40870.56
6212.3107,40229.56
6212.9526,40791.52
6213.5946,40242.61
6214.2366,40237.02
6214.8785,39905.24
6215.5205,39883.86
6216.1625,39746.21
6216.8044,39431.22
6217.4464,39862.32
6218.0884,39996.64
6218.7303,39746.31
6219.3723,39925.59
6220.0143,39269.75
6220.6562,39617.75
6221.2982,39802.36
6221.9402,39223.63
6222.5821,39588.7
6223.2241,39356.92
6223.8661,40099.56
6224.508,40387.51
6225.15,40443.99
6225.792,40599.02
6226.4339,40896.89
6227.0759,40436.87
6227.7179,40014.48
6228.3598,40460.68
6229.0018,40626.15
6229.6438,39971.76
6230.2857,39897.01
6230.9277,39763.88
6231.5697,39612.82
6232.2116,39099.61
6232.8536,39051.83
6233.4956,39029.12
6234.1375,38750.64
6234.7795,39179.23
6235.4215,39801.64
6236.0634,40021.57
6236.7054,40147.91
6237.3474,40391.27
6237.9893,40671.89
6238.6313,40620.39
6239.2733,40278.63
6239.9152,40426.53
6240.5572,40445.2
6241.1992,40044.92
6241.8411,40189.67
6242.4831,40027.93
6243.1251,39970.26
6243.767,40251.74
6244.409,39853.3
6245.051,39613.1
6245.6929,39340.27
6246.3349,39174.89
6246.9769,38999.46
6247.6188,39249.8
6248.2608,39381.23
6248.9028,39307.7
6249.5447,39691.91
6250.1867,39021.55
6250.8287,39712.69
6251.4706,39779.12
6252.1126,39689.81
6252.7546,39563.56
6253.3965,39399.2
6254.0385,39117.38
6254.6805,39065.11
6255.3224,38527.43
6255.9644,38123.2
6256.6064,37878.32
6257.2483,38058.13
6257.8903,38873.89
6258.5323,38837.17
6259.1742,38553.95
6259.8162,38635.53
6260.4582,38310.15
6261.1001,38665.6
6261.7421,38641.03
6262.3841,39316.18
6263.026,39688.05
6263.668,40192.57
6264.31,39549.34
6264.9519,39293.52
6265.5939,39797.52
6266.2359,39813.71
6266.8778,39764.61
6267.5198,39504.93
6268.1618,39550.3
6268.8037,39502.61
6269.4457,39215.18
6270.0877,39925.55
6270.7296,40363.49
6271.3716,39982.82
6272.0136,39930.82
6272.6555,39822.0
6273.2975,40120.71
6273.9395,39816.77
6274.5814,39565.85
6275.2234,39626.52
6275.8654,39764.12
6276.5073,39139.92
6277.1493,38647.98
6277.7913,38441.98
6278.4332,37996.73
6279.0752,37612.95
6279.7172,37736.21
6280.3591,38024.95
6281.0011,38326.05
6281.6431,38550.4
6282.285,38551.71
6282.927,38686.87
6283.569,38890.71
6284.2109,39351.66
6284.8529,39748.24
6285.4949,40013.21
6286.1368,40008.27
6286.7788,40055.3
6287.4208,39852.15
6288.0627,39795.04
6288.7047,39918.05
6289.3467,39959.92
6289.9886,39910.68
6290.6306,39468.46
6291.2726,39791.21
6291.9145,39676.77
6292.5565,39834.14
6293.1985,39486.41
6293.8404,39205.13
6294.4824,39620.29
6295.1244,39509.1
6295.7663,39385.62
6296.4083,38887.95
6297.0503,38745.99
6297.6922,39108.89
6298.3342,39173.28
6298.9762,39632.54
6299.6181,39267.95
6300.2601,38878.18
6300.9021,38064.71
6301.544,38723.42
6302.186,37817.44
6302.828,38950.64
6303.4699,38795.37
6304.1119,38670.46
6304.7539,38525.41
6305.3958,38545.69
6306.0378,38284.45
6306.6798,39367.56
6307.3217,39612.93
6307.9637,39270.73
6308.6057,39946.82
6309.2476,40354.5
6309.8896,40095.52
6310.5316,40028.21
6311.1735,39367.43
6311.8155,39373.98
6312.4575,39871.79
6313.0994,39688.62
6313.7414,39839.73
6314.3834,39535.61
6365.0987,40459.39
6365.7407,40006.5
6366.3827,39655.95
6367.0246,40041.62
6367.6666,39869.87
6368.3086,40615.51
6368.9505,40308.13
6369.5925,40347.21
6370.2345,40295.46
6370.8764,40542.92
6371.5184,40508.31
6372.1604,40514.86
6372.8023,40483.45
6373.4443,40635.75
6374.0863,40658.64
6374.7282,40833.26
6375.3702,40593.24
6376.0122,40508.98
6376.6541,40543.77
6377.2961,40548.77
6377.9381,40522.1
6378.58,40425.48
6379.222,40217.78
6379.864,40073.48
6380.5059,40370.48
6381.1479,40535.39
6381.7899,40428.85
6382.4318,40333.4
6383.0738,40077.28
6383.7158,40210.02
6384.3577,40358.79
6384.9997,40233.64
6385.6417,40300.38
6386.2836,40442.63
6386.9256,40183.09
6387.5676,40440.34
6388.2095,40699.76
6388.8515,40085.07
6389.4935,40325.47
6390.1354,40208.93
6390.7774,39885.18
6391.4194,39955.4
6392.0613,40199.36
6392.7033,39984.57
6393.3453,39309.39
6393.9872,39741.09
6394.6292,40089.6
6395.2712,39575.81
6395.9131,39300.37
6396.5551,38965.43
6397.1971,38864.64
6397.839,39261.22
6398.481,39535.17
6399.123,39349.92
6399.7649,39150.12
6400.4069,39242.63
6401.0489,39370.94
6401.6908,38977.78
6402.3328,38892.64
6402.9748,38635.61
6403.6167,38524.33
6404.2587,39009.17
6404.9007,39603.37
6405.5426,40036.46
6406.1846,40042.87
6406.8266,39881.11
6407.4685,39987.75
6408.1105,40406.93
6408.7525,40280.54
6409.3944,39608.5
6410.0364,39343.16
6410.6784,39200.46
6411.3203,38934.25
6411.9623,38971.53
6412.6043,38938.19
6413.2462,39264.61
6413.8882,39103.5
6414.5302,38720.18
6415.1721,38511.73
6415.8141,39056.46
6416.4561,39351.62
6417.098,39550.81
6417.74,39430.69
6418.382,39463.86
6419.0239,39248.92
6419.6659,39785.43
6420.3079,39591.56
6420.9498,39547.47
6421.5918,39280.78
6422.2338,39120.15
6422.8757,38724.56
6423.5177,38869.17
6424.1597,38925.86
6424.8016,38819.26
6425.4436,38849.64
6426.0856,39725.43
6426.7275,40028.93
6427.3695,39959.79
6428.0115,39883.33
6428.6534,39972.63
6429.2954,40132.2
6429.9374,39821.33
6430.5793,39572.25
6431.2213,39192.61
6431.8633,39174.36
6432.5052,39006.2
6433.1472,38665.04
6433.7892,38698.16
6434.4311,38761.14
6435.0731,38973.19
6435.7151,39402.2
6436.357,39961.18
6436.999,39827.5
6437.641,39411.05
6438.2829,38993.08
6438.9249,38648.45
6439.5669,38718.41
6440.2088,39039.91
6440.8508,38714.21
6441.4928,38295.47
6442.1347,37637.27
6442.7767,37945.2
6443.4187,38417.02
6444.0606,39093.78
6444.7026,39800.1
6445.3446,39599.0
6445.9865,39874.65
6446.6285,39772.37
6447.2705,39662.02
6447.9124,39705.38
6448.5544,39612.02
6449.1964,39387.37
6449.8383,39177.2
6450.4803,39084.24
6451.1223,38925.8
6451.7642,38825.15
6452.4062,38642.6
6453.0482,38383.78
6453.6901,38572.7
6454.3321,38957.83
6454.9741,39199.34
6455.616,39213.07
6456.258,39238.89
6456.9,38939.31
6457.5419,38898.32
6458.1839,39009.0
6458.8259,38852.39
6459.4678,38840.32
6460.1098,38702.65
6460.7518,38569.05
6461.3937,38692.28
6462.0357,38545.65
6462.6777,38584.98
6463.3196,37691.52
6463.9616,37694.29
6464.6036,37581.14
6465.2455,37138.29
6465.8875,36951.1
6466.5295,37592.75
6467.1714,38117.64
6467.8134,38446.15
6468.4554,38833.38
6469.0973,39050.83
6469.7393,39047.87
6470.3813,38829.32
6471.0232,38688.43
6471.6652,38641.1
6472.3072,38491.87
6472.9491,38299.36
6473.5911,38091.27
6474.2331,37585.1
6474.875,37164.71
6475.517,37404.6
6476.159,37786.8
6476.8009,37644.52
6477.4429,37838.74
6478.0849,38099.76
6478.7268,38172.89
6479.3688,38702.02
6480.0108,38636.73
6480.6527,38592.46
6481.2947,38284.7
6481.9367,38570.55
6482.5786,38616.41
6483.2206,38501.17
6483.8626,38209.37
6484.5045,38659.42
6485.1465,37995.56
6485.7885,38066.4
6486.4304,38522.78
6487.0724,39111.94
6487.7144,38678.76
6488.3563,38875.85
6488.9983,38716.04
6489.6403,38581.18
6490.2822,38597.98
6490.9242,38843.88
6491.5662,38717.71
6492.2081,38326.82
6492.8501,38158.13
6493.4921,37474.03
6494.134,37084.5
6494.776,36896.04
6495.418,36361.52
6496.0599,36085.81
6496.7019,35504.59
6497.3439,35453.73
6497.9858,35816.61
6498.6278,35627.61
6499.2698,36329.57
6499.9117,36672.72
6500.5537,37357.27
6501.1957,37489.57
6501.8376,37900.3
6502.4796,38091.23
6503.1216,37447.47
6503.7635,37875.59
6504.4055,38415.16
6505.0475,38836.62
6505.6894,39490.8
6506.3314,38866.01
6506.9734,39277.19
6507.6153,39729.78
6508.2573,39287.63
6508.8993,38912.53
6509.5412,38523.81
6510.1832,38771.88
6510.8252,38785.73
6511.4671,38712.82
6512.1091,38793.52
6512.7511,38602.27
6513.393,38203.08
6514.035,37893.48
6514.677,38065.44
6515.3189,37824.45
6515.9609,37518.04
6516.6029,37441.52
6517.2448,37320.29
6517.8868,37638.65
6518.5288,37010.32
6519.1707,37190.71
6519.8127,37619.2
6520.4547,38543.11
6521.0966,38116.0
6521.7386,37965.23
6522.3806,38314.34
6523.0225,38380.75
6523.6645,38404.38
6524.3065,38700.94
6524.9484,38382.29
6525.5904,38642.69
6526.2324,38678.28
6526.8743,38547.82
6527.5163,38630.33
6528.1583,39066.31
6528.8002,38746.06
6529.4422,38516.3
6530.0842,38513.51
6530.7261,38696.64
6531.3681,38706.64
6532.0101,38451.0
6532.652,38427.35
6533.294,38239.36
6533.936,38216.92
6534.5779,38461.39
6535.2199,38113.66
6535.8619,38215.32
6536.5038,38083.99
6537.1458,38413.0
6537.7878,37909.78
6538.4297,38173.12
6539.0717,38285.37
6539.7137,38273.37
6540.3556,38619.68
6540.9976,38345.75
6541.6396,38462.7
6542.2815,38102.66
6542.9235,37886.49
6543.5655,37845.16
6544.2074,37776.14
6544.8494,37499.34
6545.4914,37660.2
6546.1333,37754.87
6546.7753,37485.92
6547.4173,37473.43
6548.0592,37220.81
6548.7012,36931.86
6549.3432,36670.73
6549.9851,36372.65
6550.6271,36565.57
6551.2691,37153.89
6551.911,37620.14
6552.553,37419.43
6553.195,37032.42
6553.8369,36907.72
6554.4789,36881.02
6555.1209,36639.83
6555.7628,36713.28
6556.4048,36950.95
6557.0468,36680.93
6557.6887,36169.64
6558.3307,35970.12
6558.9727,35711.73
6559.6146,35962.26
6560.2566,36408.98
6560.8986,36942.88
6561.5405,36593.61
6562.1825,37024.91
6562.8245,37196.76
6563.4664,37660.66
6564.1084,38049.55
6564.7504,38930.83
6565.3923,39378.21
6566.0343,39178.37
6566.6763,38929.01
6567.3182,38237.96
6567.9602,37403.86
6568.6022,36593.14
6569.2441,36185.37
6569.8861,36424.89
6570.5281,36219.21
6571.17,36100.54
6571.812,36164.3
6572.454,36333.99
6573.0959,36528.75
6573.7379,36648.56
6574.3799,36328.45
6575.0218,36454.3
6575.6638,36745.89
6576.3058,36442.95
6576.9477,36629.93
6577.5897,36806.99
6578.2317,37062.58
6578.8736,37725.46
6579.5156,37722.26
6580.1576,37375.27
6580.7995,37325.91
6581.4415,37342.32
6582.0835,37418.38
6582.7254,36888.79
6583.3674,36800.26
6584.0094,37284.27
6584.6513,37413.22
6585.2933,37333.65
6585.9353,37644.55
6586.5772,37893.64
6587.2192,37446.78
6587.8612,37383.87
6588.5031,37644.64
6589.1451,37446.34
6589.7871,37362.19
6590.429,37686.79
6591.071,37499.75
6591.713,37421.7
6592.3549,37197.37
6592.9969,37249.34
6593.6389,36903.66
6594.2808,36386.88
6594.9228,36500.3
6595.5648,36449.31
6596.2067,35965.6
6596.8487,35902.43
6597.4907,36350.28
6598.1326,37023.86
6598.7746,37264.96
6599.4166,37214.53
6600.0585,37318.39
6600.7005,37354.16
6601.3425,37261.14
6601.9844,37105.2
6602.6264,37526.66
6603.2684,37623.2
6603.9103,37782.12
6604.5523,37485.96
6605.1943,37223.54
6605.8362,37745.89
6606.4782,38011.34
6607.1202,37207.2
6607.7621,37334.84
6608.4041,37164.14
6609.0461,37021.87
6609.688,37271.21
6610.33,37051.59
6610.972,36720.95
6611.6139,36760.92
6612.2559,36883.4
6612.8979,36707.62
6613.5398,36764.27
6614.1818,37093.43
6614.8238,37259.52
6615.4657,37299.11
6616.1077,37398.67
6616.7497,37326.68
6617.3916,37397.31
6618.0336,37422.23
6618.6756,37276.29
6619.3175,37514.99
6619.9595,38083.59
6620.6015,37115.07
6621.2434,37264.05
6621.8854,37186.98
6622.5274,37427.25
6623.1693,37245.76
6623.8113,37286.77
6624.4533,37250.83
6625.0952,37309.07
6625.7372,37218.39
6626.3792,37023.31
6627.0211,36983.64
6627.6631,36728.89
6628.3051,36859.89
6628.947,36781.6
6629.589,36993.86
6630.231,37167.79
6630.8729,37162.91
6631.5149,37349.97
6632.1569,37214.53
6632.7988,37067.55
6633.4408,36975.15
6634.0828,36913.01
6634.7247,37150.71
6635.3667,36704.46
6636.0087,36581.81
6636.6506,36458.76
6637.2926,36241.03
6637.9346,36333.59
6638.5765,36711.98
6639.2185,36218.08
6639.8605,36348.18
6640.5024,36780.81
6641.1444,36887.95
6641.7864,36403.97
6642.4283,36245.51
6643.0703,36362.24
6643.7123,36275.64
6644.3542,35993.71
6644.9962,35929.41
6645.6382,36412.65
6646.2801,36477.26
6646.9221,36089.48
6647.5641,36102.46
6648.206,35991.56
6648.848,36552.75
6649.49,36686.15
6650.1319,36319.71
6650.7739,36214.39
6651.4159,36348.2
6652.0578,36432.8
6652.6998,36789.04
6653.3418,36440.82
6653.9837,36576.37
6654.6257,36411.87
6655.2677,36379.09
6655.9096,36437.55
6656.5516,36469.77
6657.1936,36459.44
6657.8355,36052.55
6658.4775,36034.02
6659.1195,36581.62
6659.7614,36705.83
6660.4034,36114.07
6661.0454,35780.43
6661.6873,36261.3
6662.3293,36047.06
6662.9713,35600.32
6663.6132,35774.51
6664.2552,35581.97
6664.8972,35848.8
6665.5391,35553.32
6666.1811,35488.89
6666.8231,35883.11
6667.465,35658.68
6668.107,35759.55
6668.749,35980.73
6669.3909,35694.02
6670.0329,35637.83
6670.6749,35885.79
6671.3168,36128.52
6671.9588,35860.4
6672.6008,35955.67
6673.2427,35679.39
6673.8847,35690.53
6674.5267,35443.25
6675.1686,36036.08
6675.8106,35789.32
6676.4526,35800.31
6677.0945,35217.06
6677.7365,35569.81
6678.3785,35847.56
6679.0204,35278.57
6679.6624,35197.78
6680.3044,35282.87
6680.9463,34864.0
6681.5883,34567.55
6682.2303,35027.68
6682.8722,35391.8
6683.5142,35661.2
6684.1562,35861.51
6684.7981,35912.71
6685.4401,36029.59
6686.0821,35775.73
6686.724,35760.53
6687.366,35640.25
6688.008,35561.18
6688.6499,35749.64
6689.2919,35769.54
6689.9339,35821.34
6690.5758,36196.2
6691.2178,36190.96
6691.8598,35736.11
6692.5017,35302.93
6693.1437,35460.27
6693.7857,35405.84
6694.4276,35305.34
6695.0696,35319.29
6695.7116,35472.82
6696.3535,35257.91
6696.9955,35318.9
6697.6375,35445.37
6698.2794,35409.87
6698.9214,35425.39
6699.5634,35718.46
6700.2053,35472.41
6700.8473,35112.04
6701.4893,34891.41
6702.1312,35705.69
6702.7732,35244.83
6703.4152,35179.27
6704.0571,35137.29
6704.6991,34946.28
6705.3411,34938.74
6705.983,34694.97
6706.625,34611.66
6707.267,34804.51
6707.9089,34709.39
6708.5509,34720.47
6709.1929,35053.33
6709.8348,34832.0
6710.4768,34369.5
6711.1188,34799.61
6711.7607,34718.85
6712.4027,34565.84
6713.0447,34657.59
6713.6866,35597.26
6714.3286,34944.3
6714.9706,35036.1
6715.6125,35031.77
6716.2545,34770.33
6716.8965,34523.52
6717.5384,34245.36
6718.1804,34193.15
6718.8224,34760.76
6719.4643,34613.24
6720.1063,34120.17
6720.7483,33781.67
6721.3902,34115.5
6722.0322,34242.17
6722.6742,34438.23
6723.3161,34501.3
6723.9581,34723.29
6724.6001,34640.0
6725.242,34459.98
6725.884,34633.12
6726.526,34413.63
6727.1679,34751.19
6727.8099,34749.57
6728.4519,34353.1
6729.0938,34438.37
6729.7358,34619.68
6730.3778,34363.95
6731.0197,34167.97
6731.6617,34092.87
6732.3037,34169.91
6732.9456,34372.09
6733.5876,34320.09
6734.2296,34039.28
6734.8715,34332.2
6735.5135,34366.58
6736.1555,34311.19
6736.7974,34130.48
6737.4394,34176.46
6738.0814,34430.27
6738.7233,33681.21
6739.3653,33841.66
6740.0073,33724.01
6740.6492,34108.11
6741.2912,33769.42
6741.9332,33836.43
6742.5751,33887.11
6743.2171,33879.01
6743.8591,33826.59
6744.501,33688.47
6745.143,34003.22
6745.785,33859.29
6746.4269,33388.36
6747.0689,33220.4
6747.7109,33369.2
6748.3528,33182.57
6748.9948,33264.52
6749.6368,33333.48
6750.2787,33070.0
6750.9207,33318.91
6751.5627,33250.35
6752.2046,33206.0
6752.8466,33388.02
6753.4886,33068.76
6754.1305,33003.54
6754.7725,33006.3
6755.4145,33037.32
6756.0564,33517.21
6756.6984,33407.11
6757.3404,33515.66
6757.9823,33709.46
6758.6243,33713.03
6759.2663,33555.32
6759.9082,33385.54
6760.5502,33825.09
6761.1922,33286.46
6761.8341,33622.34
6762.4761,33735.95
6763.1181,33669.39
6763.76,33302.34
6764.402,33510.13
6765.044,33405.81
6765.6859,33623.09
6766.3279,33041.25
6766.9699,32868.28
6767.6118,33042.81
6768.2538,33185.02
6768.8958,33111.72
6769.5377,33027.68
6770.1797,33094.28
6770.8217,33091.8
6771.4636,32852.71
6772.1056,33125.65
6772.7476,32964.45
6773.3895,33185.92
6774.0315,32998.16
6774.6735,32847.41
6775.3154,32938.03
6775.9574,33115.76
6776.5994,33110.49
6777.2413,33087.05
6777.8833,33239.86
6778.5253,33145.25
6779.1672,33104.61
6779.8092,32948.36
6780.4512,32730.03
6781.0931,32720.64
6781.7351,32814.08
6782.3771,33138.54
6783.019,32604.34
6783.661,32472.73
6784.303,32475.29
6784.9449,32231.02
6785.5869,32922.41
6786.2289,32782.71
6786.8708,32525.41
6787.5128,32525.82
6788.1548,32445.32
6788.7967,32632.08
6789.4387,32663.54
6790.0807,32237.34
6790.7226,32334.32
6791.3646,32517.96
6792.0066,32139.41
6792.6485,32227.23
6793.2905,32160.65
6793.9325,31894.34
6794.5744,32260.77
6795.2164,32424.86
6795.8584,32105.98
6796.5003,32233.57
6797.1423,32282.07
6797.7843,32149.82
6798.4262,32202.86
6799.0682,32209.36
6799.7102,32304.29
6800.3521,32176.34
6800.9941,32218.87
6801.6361,32400.0
6802.278,32316.3
6802.92,32049.0
6803.562,31717.57
6804.2039,31781.68
6804.8459,31316.79
6805.4879,32149.21
6806.1298,31935.78
6806.7718,31988.45
6807.4138,31711.48
6808.0557,31902.09
6808.6977,32056.95
6809.3397,32058.55
6809.9816,31787.14
6810.6236,31836.19
6811.2656,31920.63
6811.9075,31679.69
6812.5495,31299.51
6813.1915,31507.9
6813.8334,31673.87
6814.4754,31705.89
6815.1174,31766.39
6815.7593,31794.12
6816.4013,31932.91
6817.0433,31848.66
6817.6852,31773.11
6818.3272,31824.15
6818.9692,31166.16
6819.6111,31543.12
6820.2531,31403.03
6820.8951,31540.77
6821.537,31468.8
6822.179,31458.28
6822.821,31376.36
6823.4629,31247.66
6824.1049,31677.86
6824.7469,31651.05
6825.3888,31562.21
6826.0308,31547.8
6826.6728,31559.44
6827.3147,31444.54
6827.9567,30905.24
6828.5987,30912.75
6829.2406,30923.57
6829.8826,30923.78
6830.5246,30688.0
6831.1665,31134.35
6831.8085,30808.04
6832.4505,30648.04
6833.0924,30987.33
6833.7344,31278.15
6834.3764,31012.26
6835.0183,31219.15
6835.6603,31096.7
6836.3023,30788.6
6836.9442,30540.55
6837.5862,30814.45
6838.2282,31000.17
6838.8701,30757.53
6839.5121,31019.22
6840.1541,30574.86
6840.796,30260.06
6841.438,30611.05
6842.08,30548.65
6842.7219,30399.83
6843.3639,30441.18
6844.0059,30205.64
6844.6478,29871.36
6845.2898,29920.92
6845.9318,30359.3
6846.5737,30187.45
6847.2157,30031.66
6847.8577,30329.84
6848.4996,30471.67
6849.1416,30037.54
6849.7836,30023.55
6850.4255,30315.18
6851.0675,30212.2
6851.7095,30260.13
6852.3514,30435.62
6852.9934,30242.95
6853.6354,30299.56
6854.2773,30075.76
6854.9193,30186.67
6855.5613,30222.0
6856.2032,30307.11
6856.8452,30170.91
6857.4872,29851.06
6858.1291,29515.69
6858.7711,29051.87
6859.4131,29588.1
6860.055,29991.2
6860.697,29802.88
6861.339,29767.64
6861.9809,29723.02
6862.6229,29553.28
6863.2649,29968.06
6863.9068,29827.11
6864.5488,29290.61
6865.1908,28333.07
6865.8327,27245.02
6866.4747,26590.06
6867.1167,25798.79
6867.7586,25063.87
6868.4006,23143.57
6869.0426,21348.19
6869.6845,19569.7
6870.3265,18942.33
6870.9685,19204.8
6871.6104,19627.79
6872.2524,20200.54
6872.8944,20784.23
6873.5363,21383.58
6874.1783,21538.7
6874.8203,21834.67
6875.4622,22547.1
6876.1042,22880.57
6876.7462,23677.76
6877.3881,23721.06
6878.0301,24297.59
6878.6721,24849.26
6879.314,25455.87
6879.956,25976.3
6880.598,26576.87
6881.2399,26798.05
6881.8819,27063.58
6882.5239,27547.71
6883.1658,27833.96
6883.8078,27585.03
6884.4498,27295.83
6885.0917,26549.87
6885.7337,26243.19
6886.3757,25198.94
6887.0176,25422.17
6887.6596,25187.67
6888.3016,25129.66
6888.9435,25194.29
6889.5855,25151.05
6890.2275,25117.09
6890.8694,24583.74
6891.5114,24626.77
6892.1534,24887.65
6892.7953,25405.99
6893.4373,25481.12
6894.0793,24856.13
6894.7212,24436.88
6895.3632,24752.01
6896.0052,25657.42
6896.6471,26240.32
6897.2891,25425.48
6897.9311,24832.27
6898.573,24567.53
6899.215,25156.71
6899.857,26119.04
6900.4989,26561.37
6901.1409,26007.37
6901.7829,25448.57
6902.4248,24983.55
6903.0668,25298.55
6903.7088,25854.26
6904.3507,26891.41
6904.9927,27086.42
6905.6347,24894.59
6906.2766,21261.26
6906.9186,24169.6
6907.5606,26885.01
6908.2025,26871.25
6908.8445,27522.95
6909.4865,27394.46
6910.1284,26753.16
6910.7704,25984.51
6911.4124,26242.31
6912.0543,26718.14
6912.6963,27088.82
6913.3383,27254.14
6913.9802,26851.41
6914.6222,26595.11
6915.2642,25641.04
6915.9061,25736.43
6916.5481,26284.21
6917.1901,26696.77
6917.832,26780.72
6918.474,27180.32
6919.116,27075.69
6919.7579,26544.85
6920.3999,26365.52
6921.0419,26229.74
6921.6838,26285.66
6922.3258,26567.49
6922.9678,27203.35
6923.6097,26980.89
6924.2517,26021.58
6924.8937,26195.5
6925.5356,26201.54
6926.1776,26456.18
6926.8196,26620.2
6927.4615,26600.91
6928.1035,26875.24
6928.7455,26935.91
6929.3874,27065.56
6930.0294,26552.7
6930.6714,25724.3
6931.3133,25690.2
6931.9553,26014.0
6932.5973,25991.62
6933.2392,25945.73
6933.8812,26077.39
6934.5232,26644.8
6935.1651,26229.11
6935.8071,26162.78
6936.4491,26425.86
6937.091,26255.19
6937.733,25800.1
6938.375,25986.15
6939.0169,26069.19
6939.6589,25949.02
6940.3009,25281.23
6940.9428,25062.98
6941.5848,24555.09
6942.2268,24797.77
6942.8687,25104.19
6943.5107,25518.64
6944.1527,25742.56
6944.7946,25856.67
6945.4366,26164.85
6946.0786,26539.98
6946.7205,26390.47
6947.3625,26384.29
