wavelength,flux
4987.8929,2353.507
4988.5349,2353.534
4989.1769,2353.56
4989.8189,2298.293
4990.4608,2261.202
4991.1028,2373.657
4991.7448,2424.218
4992.3868,2423.442
4993.0288,2155.011
4993.6708,2220.555
4994.3128,2370.204
4994.9548,2391.394
4995.5968,2334.338
4996.2388,2504.158
4996.8807,2494.055
4997.5227,2403.589
4998.1647,2572.125
4998.8067,2514.629
4999.4487,2424.239
5000.0907,2430.109
5000.7327,2320.452
5001.3747,2169.009
5002.0167,2135.762
5002.6587,2105.497
5003.3007,2052.739
5003.9426,2175.755
5004.5846,2191.979
5005.2266,2125.83
5005.8686,2062.443
5006.5106,2117.962
5007.1526,2122.72
5007.7946,2060.627
5008.4366,2011.99
5009.0786,2079.913
5009.7206,2252.128
5010.3625,2250.731
5011.0045,2145.824
5011.6465,2211.949
5012.2885,2189.743
5012.9305,2332.141
5013.5725,2320.94
5014.2145,2250.609
5014.8565,2154.883
5015.4985,2075.317
5016.1405,2132.614
5016.7824,2190.889
5017.4244,2172.413
5018.0664,2076.305
5018.7084,1988.931
5019.3504,2236.068
5019.9924,2353.611
5020.6344,2206.706
5021.2764,2398.041
5021.9184,2174.081
5022.5604,2190.547
5023.2024,2210.099
5023.8443,2351.349
5024.4863,2259.371
5025.1283,2255.323
5025.7703,2351.802
5026.4123,2351.624
5027.0543,2275.83
5027.6963,2346.198
5028.3383,2328.868
5028.9803,2284.295
5029.6223,2334.873
5030.2642,2361.666
5030.9062,2335.885
5031.5482,2312.772
5032.1902,2523.29
5032.8322,2591.069
5033.4742,2527.765
5034.1162,2498.443
5034.7582,2418.012
5035.4002,2661.533
5036.0422,2538.504
5036.6842,2543.708
5037.3261,2584.464
5037.9681,2382.558
5038.6101,2365.579
5039.2521,2364.463
5039.8941,2377.807
5040.5361,2269.726
5041.1781,2227.17
5041.8201,2201.145
5042.4621,2106.682
5043.1041,2065.486
5043.746,2076.334
5044.388,2130.03
5045.03,2242.345
5045.672,2435.784
5046.314,2578.666
5046.956,2572.179
5047.598,2446.699
5048.24,2727.774
5048.882,2759.694
5049.524,2746.221
5050.1659,2396.308
5050.8079,2477.757
5051.4499,2440.43
5052.0919,2152.302
5052.7339,2299.105
5053.3759,2328.471
5054.0179,2274.472
5054.6599,2392.844
5055.3019,2341.103
5055.9439,2467.302
5056.5859,2670.195
5057.2278,2733.641
5057.8698,2750.575
5058.5118,2690.778
5059.1538,2532.927
5059.7958,2554.106
5060.4378,2731.54
5061.0798,2904.757
5061.7218,2901.204
5062.3638,2765.789
5063.0058,2650.399
5063.6477,2787.042
5064.2897,2756.679
5064.9317,2590.096
5065.5737,2593.156
5066.2157,2501.7
5066.8577,2531.066
5067.4997,2353.175
5068.1417,2397.582
5068.7837,2430.043
5069.4257,2409.537
5070.0677,2430.986
5070.7096,2489.266
5071.3516,2439.233
5071.9936,2364.968
5072.6356,2418.26
5073.2776,2474.5
5073.9196,2579.888
5074.5616,2593.199
5075.2036,2509.002
5075.8456,2476.648
5076.4876,2561.764
5077.1295,2773.625
5077.7715,2788.935
5078.4135,2607.52
5079.0555,2452.621
5079.6975,2299.754
5080.3395,2512.324
5080.9815,2417.373
5081.6235,2408.817
5082.2655,2276.413
5082.9075,2220.909
5083.5494,2252.201
5084.1914,2322.594
5084.8334,2406.38
5085.4754,2422.706
5086.1174,2378.748
5086.7594,2446.812
5087.4014,2500.176
5088.0434,2555.561
5088.6854,2647.105
5089.3274,2639.448
5089.9694,2723.213
5090.6113,2738.943
5091.2533,2745.732
5091.8953,2610.03
5092.5373,2649.921
5093.1793,2762.317
5093.8213,2882.975
5094.4633,2722.146
5095.1053,2740.107
5095.7473,2815.097
5096.3893,2823.84
5097.0312,2812.01
5097.6732,2804.422
5098.3152,2719.86
5098.9572,2567.651
5099.5992,2529.397
5100.2412,2663.495
5100.8832,2701.626
5101.5252,2504.417
5102.1672,2412.445
5102.8092,2459.841
5103.4512,2453.275
5104.0931,2541.152
5104.7351,2571.53
5105.3771,2623.56
5106.0191,2622.342
5106.6611,2651.782
5107.3031,2564.778
5107.9451,2639.063
5108.5871,2508.371
5109.2291,2707.257
5109.8711,2784.49
5110.513,2628.106
5111.155,2572.212
5111.797,2492.567
5112.439,2528.305
5113.081,2597.831
5113.723,2701.048
5114.365,2837.216
5115.007,2798.572
5115.649,2757.136
5116.291,2937.041
5116.9329,2941.529
5117.5749,2864.341
5118.2169,2728.826
5118.8589,2662.756
5119.5009,2829.104
5120.1429,2938.729
5120.7849,3078.515
5121.4269,2747.58
5122.0689,2699.297
5122.7109,2726.796
5123.3529,2791.306
5123.9948,2642.801
5124.6368,2643.71
5125.2788,2671.656
5125.9208,2650.51
5126.5628,2595.655
5127.2048,2511.768
5127.8468,2492.021
5128.4888,2543.015
5129.1308,2643.398
5129.7728,2632.652
5130.4147,2475.766
5131.0567,2430.988
5131.6987,2490.155
5132.3407,2739.169
5132.9827,2702.452
5133.6247,2791.143
5134.2667,2687.253
5134.9087,2869.327
5135.5507,2736.038
5136.1927,2938.409
5136.8347,2752.825
5137.4766,2789.986
5138.1186,2934.75
5138.7606,2825.187
5139.4026,2621.179
5140.0446,2649.787
5140.6866,2634.861
5141.3286,2640.796
5141.9706,2510.993
5142.6126,2497.221
5143.2546,2620.896
5143.8965,2658.229
5144.5385,2734.129
5145.1805,2808.266
5145.8225,2661.773
5146.4645,2620.63
5147.1065,2623.594
5147.7485,2825.982
5148.3905,2810.258
5149.0325,2805.614
5149.6745,2716.556
5150.3164,2758.023
5150.9584,2694.789
5151.6004,2661.484
5152.2424,2559.167
5152.8844,2758.313
5153.5264,2669.052
5154.1684,2586.801
5154.8104,2496.842
5155.4524,2519.937
5156.0944,2547.849
5156.7364,2805.37
5157.3783,2862.339
5158.0203,2765.744
5158.6623,2925.243
5159.3043,3077.96
5159.9463,3087.361
5160.5883,3144.375
5161.2303,3112.394
5161.8723,3056.609
5162.5143,3028.605
5163.1563,3096.069
5163.7982,3133.107
5164.4402,2953.241
5165.0822,3072.412
5165.7242,2661.311
5166.3662,2444.451
5167.0082,2322.157
5167.6502,2323.299
5168.2922,2197.366
5168.9342,2169.819
5169.5762,2008.277
5170.2182,1835.954
5170.8601,1797.487
5171.5021,1944.29
5172.1441,2014.563
5172.7861,1998.792
5173.4281,2009.664
5174.0701,2015.01
5174.7121,1938.215
5175.3541,1839.786
5175.9961,1949.737
5176.6381,2066.469
5177.28,2259.655
5177.922,2486.587
5178.564,2611.45
5179.206,2727.178
5179.848,2723.249
5180.49,2648.868
5181.132,2428.093
5181.774,2400.937
5182.416,2338.077
5183.058,2223.111
5183.6999,2149.24
5184.3419,2052.205
5184.9839,1945.046
5185.6259,1922.289
5186.2679,1875.393
5186.9099,2031.481
5187.5519,2262.524
5188.1939,2485.346
5188.8359,2726.305
5189.4779,2917.687
5190.1199,3049.373
5190.7618,3062.501
5191.4038,2922.648
5192.0458,2918.029
5192.6878,2850.565
5193.3298,2885.194
5193.9718,2866.243
5194.6138,2883.618
5195.2558,2767.395
5195.8978,2859.211
5196.5398,2883.706
5197.1817,3045.386
5197.8237,3284.436
5198.4657,3118.073
5199.1077,3288.533
5199.7497,3368.169
5200.3917,3410.911
5201.0337,3293.481
5201.6757,3341.255
5202.3177,3270.708
5202.9597,3289.772
5203.6017,3230.012
5204.2436,3006.752
5204.8856,2801.718
5205.5276,2692.555
5206.1696,2678.918
5206.8116,2534.887
5207.4536,2347.714
5208.0956,2308.122
5208.7376,2272.869
5209.3796,2256.558
5210.0216,2401.125
5210.6635,2660.365
5211.3055,2588.211
5211.9475,2757.488
5212.5895,2993.714
5213.2315,2986.043
5213.8735,3066.563
5214.5155,3484.953
5215.1575,3649.635
5215.7995,3596.902
5216.4415,3518.819
5217.0834,3559.04
5217.7254,3459.159
5218.3674,3432.667
5219.0094,3467.149
5219.6514,3548.42
5220.2934,3756.371
5220.9354,3918.875
5221.5774,3936.355
5222.2194,3874.479
5222.8614,3900.437
5223.5034,3707.564
5224.1453,3654.951
5224.7873,3644.221
5225.4293,3570.123
5226.0713,3281.969
5226.7133,3171.839
5227.3553,3128.173
5227.9973,2890.256
5228.6393,2915.937
5229.2813,2883.615
5229.9233,3086.972
5230.5652,3261.991
5231.2072,3338.717
5231.8492,3568.427
5232.4912,3685.573
5233.1332,3668.895
5233.7752,3599.025
5234.4172,3659.392
5235.0592,3717.993
5235.7012,3638.869
5236.3432,3655.132
5236.9852,3825.856
5237.6271,3968.526
5238.2691,4017.515
5238.9111,4082.554
5239.5531,3981.556
5240.1951,3964.673
5240.8371,4114.509
5241.4791,4161.921
5242.1211,4124.151
5242.7631,4077.258
5243.4051,4088.334
5244.047,4386.542
5244.689,4222.111
5245.331,4273.822
5245.973,4209.407
5246.615,4041.657
5247.257,4011.262
5247.899,4033.738
5248.541,4118.756
5249.183,4113.23
5249.825,3902.915
5250.4669,3772.454
5251.1089,3779.642
5251.7509,3798.353
5252.3929,3914.967
5253.0349,3994.757
5253.6769,3847.187
5254.3189,3783.044
5254.9609,3861.144
5255.6029,3990.728
5256.2449,4111.16
5256.8869,3923.772
5257.5288,4271.311
5258.1708,4299.767
5258.8128,4144.332
5259.4548,4210.62
5260.0968,4379.525
5260.7388,4328.654
5261.3808,4097.326
5262.0228,4069.457
5262.6648,4018.344
5263.3068,3843.03
5263.9487,3649.039
5264.5907,3532.344
5265.2327,3378.913
5265.8747,2417.031
5266.5167,2560.598
5267.1587,3044.428
5267.8007,3009.544
5268.4427,3017.141
5269.0847,2789.832
5269.7267,2679.433
5270.3687,2885.199
5271.0106,3018.028
5271.6526,3071.838
5272.2946,2991.618
5272.9366,3013.056
5273.5786,3034.257
5274.2206,3252.247
5274.8626,3594.349
5275.5046,3757.093
5276.1466,4028.082
5276.7886,3833.909
5277.4305,4127.377
5278.0725,4038.555
5278.7145,3835.776
5279.3565,4170.269
5279.9985,4313.472
5280.6405,4362.241
5281.2825,4399.069
5281.9245,4214.703
5282.5665,4027.635
5283.2085,3949.294
5283.8504,3922.129
5284.4924,3969.493
5285.1344,4037.56
5285.7764,3986.208
5286.4184,3908.664
5287.0604,4060.54
5287.7024,4238.693
5288.3444,4386.063
5288.9864,4534.275
5289.6284,4802.977
5290.2704,4810.307
5290.9123,4759.83
5291.5543,4644.45
5292.1963,4609.696
5292.8383,4867.296
5293.4803,4660.743
5294.1223,4560.766
5294.7643,4806.482
5295.4063,4609.135
5296.0483,4571.297
5296.6903,4194.876
5297.3322,4134.045
5297.9742,4058.46
5298.6162,4005.189
5299.2582,4023.844
5299.9002,3910.609
5300.5422,3770.906
5301.1842,3677.578
5301.8262,3797.457
5302.4682,4232.064
5303.1102,4437.729
5303.7522,4407.816
5304.3941,4515.581
5305.0361,4457.099
5305.6781,4575.983
5306.3201,4671.02
5306.9621,4610.498
5307.6041,4677.0
5308.2461,4590.337
5308.8881,4760.967
5309.5301,4814.531
5310.1721,4763.322
5310.814,4658.521
5311.456,4785.421
5312.098,4752.021
5312.74,4725.443
5313.382,4878.144
5314.024,4851.708
5314.666,4833.782
5315.308,4931.118
5315.95,4801.333
5316.592,4686.86
5317.2339,4713.956
5317.8759,4688.662
5318.5179,4733.39
5319.1599,4858.577
5319.8019,4874.24
5320.4439,4832.647
5321.0859,4791.499
5321.7279,4750.082
5322.3699,4835.923
5323.0119,4623.932
5323.6539,4430.351
5324.2958,4497.26
5324.9378,4417.622
5325.5798,4258.378
5326.2218,4155.192
5326.8638,4166.037
5327.5058,3789.255
5328.1478,3653.487
5328.7898,3753.381
5329.4318,3687.822
5330.0738,3603.255
5330.7157,3649.366
5331.3577,3712.906
5331.9997,3886.62
5332.6417,4078.576
5333.2837,4185.218
5333.9257,4359.947
5334.5677,4660.417
5335.2097,4827.755
5335.8517,4805.648
5336.4937,4802.751
5337.1357,4830.799
5337.7776,4790.75
5338.4196,4748.919
5339.0616,4701.699
5339.7036,4486.373
5340.3456,4509.113
5340.9876,4373.652
5341.6296,4441.285
5342.2716,4323.643
5342.9136,4209.448
5343.5556,4227.826
5344.1975,4384.812
5344.8395,4379.837
5345.4815,4572.872
5346.1235,4657.662
5346.7655,4669.548
5347.4075,4435.444
5348.0495,4250.87
5348.6915,4368.76
5349.3335,4456.955
5349.9755,4419.112
5350.6174,4443.921
5351.2594,4611.414
5351.9014,4626.763
5352.5434,4602.587
5353.1854,4730.663
5353.8274,4954.207
5354.4694,5085.018
5355.1114,5033.271
5355.7534,5053.944
5356.3954,5283.913
5357.0374,4925.063
5357.6793,5093.711
5358.3213,5349.633
5358.9633,5433.569
5359.6053,5429.719
5360.2473,5375.02
5360.8893,5244.396
5361.5313,5152.785
5362.1733,5125.327
5362.8153,5314.354
5363.4573,5272.833
5364.0992,5233.267
5364.7412,5049.135
5365.3832,4990.148
5366.0252,4836.002
5366.6672,4779.792
5367.3092,4741.509
5367.9512,4776.464
5368.5932,4661.45
5369.2352,4508.48
5369.8772,4418.922
5370.5192,4250.518
5371.1611,4223.322
5371.8031,4373.006
5372.4451,4292.924
5373.0871,4108.901
5373.7291,4013.043
5374.3711,4056.633
5375.0131,4362.956
5375.6551,4627.377
5376.2971,4885.807
5376.9391,5121.472
5377.581,5126.767
5378.223,5088.161
5378.865,5261.635
5379.507,5427.784
5380.149,5205.533
5380.791,5235.403
5381.433,5250.61
5382.075,5135.449
5382.717,5174.768
5383.359,4888.135
5384.0009,4909.466
5384.6429,5028.643
5385.2849,5010.549
5385.9269,5056.653
5386.5689,5162.707
5387.2109,5339.916
5387.8529,5186.697
5388.4949,5124.031
5389.1369,5299.85
5389.7789,5241.28
5390.4209,5073.807
5391.0628,5002.3
5391.7048,4875.385
5392.3468,4848.782
5392.9888,4824.669
5393.6308,4858.528
5394.2728,4740.815
5394.9148,4610.573
5395.5568,4753.773
5396.1988,4572.901
5396.8408,4533.946
5397.4827,4545.601
5398.1247,4541.101
5398.7667,4358.796
5399.4087,4619.445
5400.0507,4525.245
5400.6927,4583.685
5401.3347,4647.452
5401.9767,4790.271
5402.6187,4942.97
5403.2607,4897.903
5403.9027,4822.102
5404.5446,4716.478
5405.1866,4640.161
5405.8286,4544.343
5406.4706,4484.119
5407.1126,4378.883
5407.7546,4214.669
5408.3966,4141.105
5409.0386,4172.121
5409.6806,4236.146
5410.3226,4265.462
5410.9645,4486.482
5411.6065,4573.894
5412.2485,4492.368
5412.8905,4701.995
5413.5325,4585.176
5414.1745,4511.32
5414.8165,4384.539
5415.4585,4509.656
5416.1005,4567.314
5416.7425,4825.368
5417.3844,5141.424
5418.0264,5334.951
5418.6684,5421.329
5419.3104,5317.142
5419.9524,5416.243
5420.5944,5579.363
5421.2364,5444.987
5421.8784,5338.781
5422.5204,5259.023
5423.1624,5224.459
5423.8044,5162.432
5424.4463,5121.184
5425.0883,5169.844
5425.7303,5268.045
5426.3723,5294.487
5427.0143,5232.198
5427.6563,5208.439
5428.2983,5166.665
5428.9403,5116.421
5429.5823,5180.431
5430.2243,5158.17
5430.8662,5193.796
5431.5082,5013.425
5432.1502,4820.542
5432.7922,4537.439
5433.4342,4559.587
5434.0762,4722.433
5434.7182,4811.31
5435.3602,4811.665
5436.0022,4945.89
5436.6442,4720.505
5437.2862,4792.348
5437.9281,5102.762
5438.5701,5083.074
5439.2121,5119.999
5439.8541,5325.101
5440.4961,5473.918
5441.1381,5794.853
5441.7801,5651.095
5442.4221,5630.15
5443.0641,5788.853
5443.7061,5817.816
5444.348,5653.364
5444.99,5474.842
5445.632,5344.427
5446.274,5146.404
5446.916,4998.409
5447.558,5012.608
5448.2,5017.59
5448.842,4827.304
5449.484,4609.478
5450.126,4658.25
5450.7679,4930.933
5451.4099,5128.222
5452.0519,5476.26
5452.6939,5470.389
5453.3359,5483.394
5453.9779,5526.196
5454.6199,5400.368
5455.2619,5146.566
5455.9039,5063.867
5456.5459,4953.328
5457.1879,5091.866
5457.8298,5016.738
5458.4718,4929.757
5459.1138,4976.083
5459.7558,5172.769
5460.3978,5374.119
5461.0398,5457.971
5461.6818,5493.634
5462.3238,5401.849
5462.9658,5461.812
5463.6078,5423.349
5464.2497,5213.037
5464.8917,5195.66
5465.5337,5200.85
5466.1757,5114.97
5466.8177,5163.456
5467.4597,5306.233
5468.1017,5418.26
5468.7437,5544.954
5469.3857,5549.709
5470.0277,5672.522
5470.6697,5602.544
5471.3116,5626.611
5471.9536,5419.475
5472.5956,5313.607
5473.2376,5447.084
5473.8796,5357.097
5474.5216,5060.086
5475.1636,5535.775
5475.8056,5077.479
5476.4476,5148.858
5477.0896,5057.248
5477.7315,5084.722
5478.3735,4870.832
5479.0155,5033.28
5479.6575,5060.125
5480.2995,5006.854
5480.9415,4926.967
5481.5835,5237.945
5482.2255,5301.785
5482.8675,5192.737
5483.5095,5305.39
5484.1514,5333.626
5484.7934,5247.978
5485.4354,5339.673
5486.0774,5446.65
5486.7194,5501.304
5487.3614,5622.586
5488.0034,5721.107
5488.6454,5710.641
5489.2874,5595.171
5489.9294,5470.309
5490.5714,5515.23
5491.2133,5693.811
5491.8553,5560.697
5492.4973,5572.124
5493.1393,5627.608
5493.7813,5649.914
5494.4233,5580.287
5495.0653,5782.802
5495.7073,5817.752
5496.3493,5798.993
5496.9913,5587.437
5497.6332,5444.088
5498.2752,5716.562
5498.9172,5529.42
5499.5592,5667.528
5500.2012,5464.243
5500.8432,5411.371
5501.4852,5439.757
5502.1272,5628.798
5502.7692,5598.655
5503.4112,5573.911
5504.0532,5617.938
5504.6951,5580.271
5505.3371,5422.01
5505.9791,5268.427
5506.6211,5380.746
5507.2631,5485.023
5507.9051,5475.525
5508.5471,5484.814
5509.1891,5411.694
5509.8311,5446.889
5510.4731,5604.234
5511.115,5689.019
5511.757,5601.522
5512.399,5497.621
5513.041,5338.691
5513.683,5193.249
5514.325,5147.183
5514.967,5074.186
5515.609,5297.432
5516.251,5367.825
5516.893,5136.382
5517.5349,5306.612
5518.1769,5637.127
5518.8189,5680.096
5519.4609,5779.048
5520.1029,5951.165
5520.7449,5773.318
5521.3869,5737.93
5522.0289,5924.025
5522.6709,6005.022
5523.3129,6038.332
5523.9549,5950.327
5524.5968,6005.857
5525.2388,6086.96
5525.8808,5841.637
5526.5228,5686.425
5527.1648,5785.035
5527.8068,5714.934
5528.4488,5565.726
5529.0908,5554.094
5529.7328,5460.359
5530.3748,5363.107
5531.0167,5400.308
5531.6587,5368.458
5532.3007,5511.863
5532.9427,5724.83
5533.5847,5615.425
5534.2267,5636.729
5534.8687,5795.162
5535.5107,5699.577
5536.1527,5708.723
5536.7947,5766.492
5537.4367,5772.11
5538.0786,5693.54
5538.7206,5699.242
5539.3626,5671.243
5540.0046,5775.642
5540.6466,5841.894
5541.2886,5932.267
5541.9306,5924.872
5542.5726,5847.999
5543.2146,6028.982
5543.8566,6030.291
5544.4985,5694.538
5545.1405,5835.302
5545.7825,5999.082
5546.4245,5846.646
5547.0665,5777.909
5547.7085,5813.219
5548.3505,5770.904
5548.9925,5911.326
5549.6345,6069.389
5550.2765,6017.905
5550.9184,5945.885
5551.5604,5933.021
5552.2024,5975.827
5552.8444,6100.318
5553.4864,6106.329
5554.1284,6106.039
5554.7704,6107.647
5555.4124,6020.133
5556.0544,5891.225
5556.6964,5773.257
5557.3384,5789.229
5557.9803,5835.565
5558.6223,5896.61
5559.2643,6079.455
5559.9063,6089.534
5560.5483,6014.946
5561.1903,6041.089
5561.8323,5848.906
5562.4743,5994.875
5563.1163,5846.208
5563.7583,5720.985
5564.4002,5966.581
5565.0422,5861.832
5565.6842,5722.942
5566.3262,5739.521
5566.9682,5709.813
5567.6102,5565.456
5568.2522,5642.218
5568.8942,5530.156
5569.5362,5491.682
5570.1782,5627.866
5570.8202,5607.099
5571.4621,5637.187
5572.1041,5591.646
5572.7461,5436.397
5573.3881,5468.402
5574.0301,5577.931
5574.6721,5646.558
5575.3141,5503.791
5575.9561,5328.375
5576.5981,5479.74
5577.2401,5671.346
5577.882,5844.426
5578.524,6097.656
5579.166,6195.786
5579.808,5834.866
5580.45,6106.077
5581.092,6248.986
5581.734,6024.794
5582.376,6043.453
5583.018,5826.604
5583.66,6026.165
5584.3019,6051.603
5584.9439,5905.236
5585.5859,5742.762
5586.2279,5823.212
5586.8699,5631.372
5587.5119,5518.902
5588.1539,5381.379
5588.7959,5118.974
5589.4379,4887.047
5590.0799,4800.549
5590.7219,4751.881
5591.3638,4952.277
5592.0058,5004.583
5592.6478,5207.135
5593.2898,5203.882
5593.9318,5357.155
5594.5738,5518.47
5595.2158,5642.634
5595.8578,5574.286
5596.4998,5521.221
5597.1418,5548.063
5597.7837,5530.684
5598.4257,5549.548
5599.0677,5674.21
5599.7097,5697.149
5600.3517,5473.292
5600.9937,5389.199
5601.6357,5476.079
5602.2777,5325.701
5602.9197,5286.59
5603.5617,5481.331
5604.2037,5537.415
5604.8456,5581.508
5605.4876,5432.421
5606.1296,5812.639
5606.7716,5900.854
5607.4136,6121.695
5608.0556,6064.357
5608.6976,6501.99
5609.3396,6172.606
5609.9816,6162.31
5610.6236,6306.566
5611.2655,6188.856
5611.9075,6344.174
5612.5495,6436.401
5613.1915,6202.819
5613.8335,6244.241
5614.4755,5955.939
5615.1175,5941.086
5615.7595,5838.957
5616.4015,5826.228
5617.0435,5593.187
5617.6854,5340.518
5618.3274,5303.656
5618.9694,5336.451
5619.6114,5503.366
5620.2534,5591.61
5620.8954,5708.859
5621.5374,5790.8
5622.1794,5902.401
5622.8214,5952.319
5623.4634,5814.278
5624.1054,5701.161
5624.7473,5836.975
5625.3893,5957.473
5626.0313,5817.581
5626.6733,5730.259
5627.3153,5702.621
5627.9573,5676.938
5628.5993,5728.342
5629.2413,5999.406
5629.8833,6060.272
5630.5253,6121.041
5631.1672,6096.363
5631.8092,6191.838
5632.4512,6082.187
5633.0932,6225.674
5633.7352,6323.92
5634.3772,6481.875
5675.4646,6139.451
5676.1066,6218.088
5676.7486,6369.15
5677.3906,6317.885
5678.0325,6236.423
5678.6745,6145.79
5679.3165,6053.285
5679.9585,6065.158
5680.6005,6101.719
5681.2425,6221.571
5681.8845,6220.411
5682.5265,5942.367
5683.1685,6069.039
5683.8105,6167.387
5684.4524,5939.22
5685.0944,5930.846
5685.7364,6014.104
5686.3784,5978.666
5687.0204,5966.582
5687.6624,6037.189
5688.3044,5929.63
5688.9464,6016.61
5689.5884,5807.148
5690.2304,5955.118
5690.8724,5712.063
5691.5143,5963.967
5692.1563,6088.671
5692.7983,6221.966
5693.4403,6158.241
5694.0823,6044.479
5694.7243,6211.66
5695.3663,6339.028
5696.0083,6503.624
5696.6503,6460.657
5697.2923,6160.56
5697.9342,6167.34
5698.5762,6047.024
5699.2182,6273.909
5699.8602,6226.586
5700.5022,6093.072
5701.1442,6043.397
5701.7862,5895.36
5702.4282,5761.552
5703.0702,5796.305
5703.7122,5866.329
5704.3542,5905.128
5704.9961,5824.258
5705.6381,5760.254
5706.2801,5789.962
5706.9221,5839.3
5707.5641,5965.877
5708.2061,5908.596
5708.8481,5806.475
5709.4901,5814.344
5710.1321,5647.316
5710.7741,5617.314
5711.416,5626.896
5712.058,5521.393
5712.7,5479.938
5713.342,5420.693
5713.984,5581.386
5714.626,5823.969
5715.268,5900.631
5715.91,5998.567
5716.552,5913.186
5717.194,5999.197
5717.8359,6246.24
5718.4779,6011.854
5719.1199,5969.49
5719.7619,6100.994
5720.4039,6082.515
5721.0459,6317.709
5721.6879,6375.078
5722.3299,6424.512
5722.9719,6695.303
5723.6139,6365.427
5724.2559,6315.589
5724.8978,6438.069
5725.5398,6392.102
5726.1818,6412.765
5726.8238,6397.984
5727.4658,6469.075
5728.1078,6218.551
5728.7498,6350.751
5729.3918,6225.557
5730.0338,6056.74
5730.6758,6488.762
5731.3177,6307.294
5731.9597,6199.417
5732.6017,6196.354
5733.2437,6113.917
5733.8857,6185.155
5734.5277,6154.568
5735.1697,6209.391
5735.8117,6407.047
5736.4537,6242.417
5737.0957,6379.989
5737.7377,6389.487
5738.3796,6400.304
5739.0216,6397.488
5739.6636,6301.733
5740.3056,6272.601
5740.9476,6380.877
5741.5896,6319.834
5742.2316,6222.891
5742.8736,6340.915
5743.5156,6295.575
5744.1576,6282.865
5744.7995,6489.627
5745.4415,6568.19
5746.0835,6525.705
5746.7255,6500.418
5747.3675,6511.166
5748.0095,6421.543
5748.6515,6456.114
5749.2935,6691.475
5749.9355,6499.998
5750.5775,6421.918
5751.2194,6337.822
5751.8614,6272.79
5752.5034,6184.681
5753.1454,6250.361
5753.7874,6345.113
5754.4294,6283.305
5755.0714,6142.609
5755.7134,6097.87
5756.3554,6176.377
5756.9974,6206.768
5757.6394,6280.397
5758.2813,6313.263
5758.9233,6423.096
5759.5653,6556.206
5760.2073,6302.049
5760.8493,6347.724
5761.4913,6409.905
5762.1333,6120.907
5762.7753,6198.907
5763.4173,6070.814
5764.0593,6061.4
5764.7012,6071.915
5765.3432,6410.26
5765.9852,6263.99
5766.6272,6268.68
5767.2692,6354.554
5767.9112,6585.448
5768.5532,6601.314
5769.1952,6622.904
5769.8372,6715.8
5770.4792,6651.825
5771.1212,6683.305
5771.7631,6449.483
5772.4051,6390.492
5773.0471,6284.755
5773.6891,6423.888
5774.3311,6372.884
5774.9731,6414.376
5775.6151,6580.708
5776.2571,6435.948
5776.8991,6291.667
5777.5411,6379.373
5778.183,6474.379
5778.825,6464.491
5779.467,6562.415
5780.109,6514.697
5780.751,6231.814
5781.393,6021.903
5782.035,6008.878
5782.677,6086.115
5783.319,5978.426
5783.961,5924.268
5784.6029,5761.145
5785.2449,5667.245
5785.8869,5745.096
5786.5289,5790.5
5787.1709,5895.25
5787.8129,5898.82
5788.4549,5924.142
5789.0969,5956.591
5789.7389,6038.892
5790.3809,6019.682
5791.0229,6096.233
5791.6648,6085.046
5792.3068,6124.479
5792.9488,6258.91
5793.5908,6335.158
5794.2328,6414.502
5794.8748,6316.086
5795.5168,6650.015
5796.1588,6405.007
5796.8008,6498.529
5797.4428,6565.435
5798.0847,6684.645
5798.7267,6512.737
5799.3687,6573.186
5800.0107,6748.098
5800.6527,6335.576
5801.2947,6418.767
5801.9367,6475.154
5802.5787,6554.255
5803.2207,6812.622
5803.8627,6800.56
5804.5047,6826.795
5805.1466,6691.392
5805.7886,6388.575
5806.4306,6401.446
5807.0726,6486.192
5807.7146,6538.559
5808.3566,6349.104
5808.9986,6499.702
5809.6406,6628.279
5810.2826,6271.718
5810.9246,6307.522
5811.5665,6516.471
5812.2085,6539.695
5812.8505,6509.869
5813.4925,6472.666
5814.1345,6611.979
5814.7765,6454.686
5815.4185,6491.742
5816.0605,6450.477
5816.7025,6289.197
5817.3445,6485.189
5817.9864,6557.862
5818.6284,6441.01
5819.2704,6240.64
5819.9124,6221.465
5820.5544,6450.214
5821.1964,6587.318
5821.8384,6606.758
5822.4804,6712.186
5823.1224,6788.628
5823.7644,6705.628
5824.4064,6676.422
5825.0483,6561.049
5825.6903,6531.907
5826.3323,6561.825
5826.9743,6613.557
5827.6163,6729.229
5828.2583,6683.546
5828.9003,6635.874
5829.5423,6532.967
5830.1843,6698.675
5830.8263,6727.762
5831.4682,6639.445
5832.1102,6558.902
5832.7522,6858.625
5833.3942,6742.575
5834.0362,6673.938
5834.6782,6503.15
5835.3202,6618.295
5835.9622,6559.608
5836.6042,6630.637
5837.2462,6733.104
5837.8882,6555.262
5838.5301,6764.324
5839.1721,6516.839
5839.8141,6534.776
5840.4561,6648.239
5841.0981,6476.393
5841.7401,6554.04
5842.3821,6635.905
5843.0241,6926.15
5843.6661,6463.985
5844.3081,6707.616
5844.95,6679.913
5845.592,6644.571
5846.234,6644.403
5846.876,6761.175
5847.518,6592.146
5848.16,6583.981
5848.802,6502.482
5849.444,6463.423
5850.086,6545.07
5850.728,6400.219
5851.3699,6403.969
5852.0119,6330.081
5852.6539,6432.035
5853.2959,6434.279
5853.9379,6403.275
5854.5799,6218.768
5855.2219,6371.616
5855.8639,6178.785
5856.5059,6024.802
5857.1479,6112.457
5857.7899,6075.97
5858.4318,6031.39
5859.0738,5947.899
5859.7158,5845.774
5860.3578,5965.354
5860.9998,6068.879
5861.6418,5989.382
5862.2838,5987.358
5862.9258,6235.924
5863.5678,6284.39
5864.2098,6268.628
5864.8517,6192.447
5865.4937,6164.014
5866.1357,6100.208
5866.7777,6164.325
5867.4197,6302.714
5868.0617,6338.299
5868.7037,6387.599
5869.3457,6446.466
5869.9877,6406.653
5870.6297,6340.945
5871.2717,6415.77
5871.9136,6418.036
5872.5556,6452.37
5873.1976,6523.257
5873.8396,6348.862
5874.4816,6367.241
5875.1236,6407.439
5875.7656,6395.936
5876.4076,6344.695
5877.0496,6261.589
5877.6916,6481.57
5878.3335,6442.577
5878.9755,6191.387
5879.6175,6068.791
5880.2595,6154.381
5880.9015,6042.443
5881.5435,5893.515
5882.1855,5786.81
5882.8275,5855.824
5883.4695,5942.5
5884.1115,5810.457
5884.7534,5756.325
5885.3954,5496.036
5886.0374,5629.004
5886.6794,5652.902
5887.3214,5486.225
5887.9634,4989.896
5888.6054,4906.125
5889.2474,4581.785
5889.8894,4067.463
5890.5314,3957.448
5891.1734,3789.844
5891.8153,3683.598
5892.4573,3488.247
5893.0993,3502.604
5893.7413,3461.68
5894.3833,3617.79
5895.0253,3720.48
5895.6673,3915.405
5896.3093,3813.918
5896.9513,3684.858
5897.5933,3833.039
5898.2352,3962.375
5898.8772,3759.553
5899.5192,3865.073
5900.1612,4453.817
5900.8032,4409.592
5901.4452,4964.109
5902.0872,5159.833
5902.7292,5438.718
5903.3712,5732.506
5904.0132,5745.882
5904.6552,5874.492
5905.2971,5937.016
5905.9391,5887.377
5906.5811,6150.024
5907.2231,6089.875
5907.8651,5827.161
5908.5071,5976.902
5909.1491,6026.011
5909.7911,6024.192
5910.4331,6101.024
5911.0751,6079.739
5911.717,6242.351
5912.359,6336.853
5913.001,6336.486
5913.643,6140.302
5914.285,6157.866
5914.927,6224.542
5915.569,6299.912
5916.211,6170.584
5916.853,5981.478
5917.495,6045.915
5918.1369,5890.441
5918.7789,6002.581
5919.4209,6068.883
5920.0629,6149.812
5920.7049,6233.123
5921.3469,6241.014
5921.9889,6168.242
5922.6309,6162.118
5923.2729,6256.018
5923.9149,6412.327
5924.5569,6237.41
5925.1988,6202.68
5925.8408,6346.273
5926.4828,6267.644
5927.1248,6362.853
5927.7668,6345.065
5928.4088,6376.604
5929.0508,6454.128
5929.6928,6210.063
5930.3348,6133.393
5930.9768,6131.774
5931.6187,6223.441
5932.2607,6342.855
5932.9027,6266.669
5933.5447,6138.393
5934.1867,6158.826
5934.8287,6413.195
5935.4707,6432.461
5936.1127,6375.779
5936.7547,6490.662
5937.3967,6399.926
5938.0387,6329.439
5938.6806,6345.895
5939.3226,6336.503
5939.9646,6326.017
5940.6066,6254.851
5941.2486,6195.473
5941.8906,6191.974
5942.5326,6329.452
5943.1746,6360.275
5943.8166,6367.179
5944.4586,6182.562
5945.1005,6112.23
5945.7425,6254.317
5946.3845,6366.589
5947.0265,6420.458
5947.6685,6417.551
5948.3105,6383.658
5948.9525,6346.875
5949.5945,6196.907
5950.2365,6274.816
5950.8785,6283.731
5951.5204,6233.982
5952.1624,6344.236
5952.8044,6327.391
5953.4464,6184.431
5954.0884,6501.186
5954.7304,6273.139
5955.3724,6282.905
5956.0144,6095.583
5956.6564,6119.091
5957.2984,6233.434
5957.9404,6138.772
5958.5823,6110.937
5959.2243,6333.738
5959.8663,6290.206
5960.5083,6338.105
5961.1503,6300.023
5961.7923,6479.401
5962.4343,6560.856
5963.0763,6606.681
5963.7183,6658.262
5964.3603,6680.913
5965.0022,6519.126
5965.6442,6524.514
5966.2862,6452.491
5966.9282,6613.704
5967.5702,6286.077
5968.2122,6222.2
5968.8542,6385.614
5969.4962,6545.188
5970.1382,6635.934
5970.7802,6724.337
5971.4222,6620.004
5972.0641,6691.643
5972.7061,6728.863
5973.3481,6681.952
5973.9901,6612.584
5974.6321,6558.612
5975.2741,6499.582
5975.9161,6588.248
5976.5581,6174.895
5977.2001,6331.667
5977.8421,6317.881
5978.484,6473.914
5979.126,6244.015
5979.768,6331.027
5980.41,6227.588
5981.052,6361.649
5981.694,6572.356
5982.336,6380.988
5982.978,6344.109
5983.62,6654.942
5984.262,6420.635
5984.9039,6366.771
5985.5459,6438.864
5986.1879,6361.126
5986.8299,6467.017
5987.4719,6350.583
5988.1139,6348.957
5988.7559,6316.905
5989.3979,6432.543
5990.0399,6297.293
5990.6819,6698.73
5991.3239,6729.878
5991.9658,6559.269
5992.6078,6711.516
5993.2498,6678.924
5993.8918,6754.593
5994.5338,6623.272
5995.1758,6879.596
5995.8178,6807.351
5996.4598,6664.876
5997.1018,6758.371
5997.7438,6938.633
5998.3857,6736.466
5999.0277,6641.688
5999.6697,6761.009
6000.3117,6487.118
6000.9537,6379.414
6001.5957,6702.431
6002.2377,6364.523
6002.8797,6438.07
6003.5217,6312.055
6004.1637,6338.013
6004.8057,6302.272
6005.4476,6365.065
6006.0896,6435.672
6006.7316,6505.937
6007.3736,6462.411
6008.0156,6459.069
6008.6576,6351.817
6009.2996,6396.182
6009.9416,6435.698
6010.5836,6554.043
6011.2256,6412.126
6011.8675,6462.676
6012.5095,6614.825
6013.1515,6467.754
6013.7935,6410.349
6014.4355,6423.698
6015.0775,6321.652
6015.7195,6661.673
6016.3615,6512.66
6017.0035,6457.371
6017.6455,6582.796
6018.2874,6362.522
6018.9294,6264.188
6019.5714,6506.185
6020.2134,6035.293
6020.8554,6331.414
6021.4974,6492.175
6022.1394,6526.809
6022.7814,6347.98
6023.4234,6271.611
6024.0654,6222.966
6024.7074,6165.418
6025.3493,6456.197
6025.9913,6494.361
6026.6333,6496.726
6027.2753,6576.914
6027.9173,6652.999
6028.5593,6735.426
6029.2013,6791.657
6029.8433,6824.264
6030.4853,6670.387
6031.1273,6746.731
6031.7692,6815.848
6032.4112,7039.985
6033.0532,7018.067
6033.6952,7049.014
6034.3372,7041.488
6034.9792,6840.485
6035.6212,6769.047
6036.2632,6930.617
6036.9052,6929.567
6037.5472,6949.595
6038.1892,6848.034
6038.8311,6739.956
6039.4731,6879.84
6040.1151,7015.472
6040.7571,6793.568
6041.3991,6900.062
6042.0411,7025.043
6042.6831,7018.265
6043.3251,6769.282
6043.9671,6825.639
6044.6091,6959.76
6045.251,6981.662
6045.893,6828.129
6046.535,7053.519
6047.177,6997.797
6047.819,7117.285
6048.461,6966.224
6049.103,6905.531
6049.745,6886.509
6050.387,6999.688
6051.029,6966.762
6051.6709,7135.112
6052.3129,7148.598
6052.9549,7247.609
6053.5969,6936.225
6054.2389,7031.934
6054.8809,7113.095
6055.5229,6970.532
6056.1649,6970.993
6056.8069,6933.648
6057.4489,6836.451
6058.0909,6863.973
6058.7328,6805.517
6059.3748,6941.717
6060.0168,6907.98
6060.6588,6525.688
6061.3008,6862.999
6061.9428,6938.542
6062.5848,7002.04
6063.2268,6741.333
6063.8688,6754.406
6064.5108,6925.984
6065.1527,6691.645
6065.7947,6370.615
6066.4367,6518.679
6067.0787,6450.853
6067.7207,6634.56
6068.3627,6818.375
6069.0047,6734.682
6069.6467,6833.614
6070.2887,6905.901
6070.9307,7046.385
6071.5727,6987.514
6072.2146,7162.469
6072.8566,7208.268
6073.4986,7147.647
6074.1406,7016.431
6074.7826,7120.27
6075.4246,7127.343
6076.0666,7143.14
6076.7086,7191.67
6077.3506,7113.167
6077.9926,7030.656
6078.6345,6869.372
6079.2765,7058.494
6079.9185,7237.563
6080.5605,6786.418
6081.2025,6887.074
6081.8445,6893.298
6082.4865,6676.16
6083.1285,6405.512
6083.7705,6523.546
6084.4125,6862.178
6085.0544,6842.616
6085.6964,6815.723
6086.3384,6729.248
6086.9804,6683.326
6087.6224,6615.332
6088.2644,7048.069
6088.9064,6562.74
6089.5484,6727.927
6090.1904,6703.202
6090.8324,6788.898
6091.4744,6915.98
6092.1163,6944.98
6092.7583,6616.391
6093.4003,6602.184
6094.0423,6695.53
6094.6843,6674.186
6095.3263,6948.883
6095.9683,7028.088
6096.6103,6866.085
6097.2523,6879.734
6097.8943,6962.616
6098.5362,7202.71
6099.1782,7015.252
6099.8202,6730.823
6100.4622,6683.943
6101.1042,6599.894
6101.7462,6389.826
6102.3882,6466.25
6103.0302,6485.078
6103.6722,6352.972
6104.3142,6545.132
6104.9562,6292.214
6105.5981,6188.796
6106.2401,6362.066
6106.8821,6203.704
6107.5241,6846.302
6108.1661,6736.117
6108.8081,6926.798
6109.4501,6921.86
6110.0921,6847.663
6110.7341,6770.633
6111.3761,6735.396
6112.018,6845.336
6112.66,6965.401
6113.302,7059.269
6113.944,6874.829
6114.586,6838.102
6115.228,6949.864
6115.87,6944.092
6116.512,6992.248
6117.154,6968.31
6117.796,7079.671
6118.4379,7074.199
6119.0799,6799.523
6119.7219,6824.684
6120.3639,6617.322
6121.0059,6561.548
6121.6479,6423.446
6122.2899,6301.908
6122.9319,6123.935
6123.5739,5900.989
6124.2159,5997.794
6124.8579,5916.93
6125.4998,6032.978
6126.1418,6100.697
6126.7838,6418.574
6127.4258,6438.564
6128.0678,6643.085
6128.7098,6820.584
6129.3518,6674.221
6129.9938,6799.075
6130.6358,6810.218
6131.2778,6890.049
6131.9197,6829.92
6132.5617,7000.262
6133.2037,6971.044
6133.8457,7117.35
6134.4877,6913.775
6135.1297,7155.18
6135.7717,6997.416
6136.4137,6576.259
6137.0557,6552.324
6137.6977,6362.912
6138.3397,6245.497
6138.9816,6176.404
6139.6236,6123.335
6140.2656,6293.798
6140.9076,6296.12
6141.5496,6205.07
6142.1916,6583.924
6142.8336,6631.297
6143.4756,6841.608
6144.1176,7007.683
6144.7596,6970.175
6145.4015,6867.17
6146.0435,6957.946
6146.6855,6979.262
6147.3275,6952.678
6147.9695,7003.853
6148.6115,7107.102
6149.2535,6972.865
6149.8955,7002.925
6150.5375,7103.326
6151.1795,7029.096
6151.8214,6859.293
6152.4634,6740.648
6153.1054,6742.7
6153.7474,6802.445
6154.3894,6784.787
6155.0314,6726.376
6155.6734,6730.633
6156.3154,6672.388
6156.9574,6622.383
6157.5994,6875.525
6158.2414,6629.52
6158.8833,6694.965
6159.5253,6667.886
6160.1673,6465.558
6160.8093,6232.59
6161.4513,6129.631
6162.0933,5756.385
6162.7353,5546.677
6163.3773,5485.827
6164.0193,5245.29
6164.6613,5149.416
6165.3032,5308.95
6165.9452,5491.08
6166.5872,5588.001
6167.2292,5783.09
6167.8712,5941.55
6168.5132,6032.474
6169.1552,6082.256
6169.7972,6068.59
6170.4392,6091.079
6171.0812,5997.357
6171.7232,5825.506
6172.3651,6037.003
6173.0071,6001.903
6173.6491,5930.974
6174.2911,6297.931
6174.9331,6471.111
6175.5751,6436.405
6176.2171,6734.837
6176.8591,6839.148
6177.5011,6614.021
6178.1431,6754.035
6178.785,6883.482
6179.427,6779.652
6180.069,6702.464
6180.711,6621.734
6181.353,6686.717
6181.995,6724.102
6182.637,6732.072
6183.279,6800.645
6183.921,6750.048
6184.563,6831.991
6185.2049,6907.579
6185.8469,6826.878
6186.4889,6962.619
6187.1309,6751.369
6187.7729,6733.221
6188.4149,6650.62
6189.0569,6684.105
6189.6989,6454.074
6190.3409,6469.84
6190.9829,6574.505
6191.6249,6534.854
6192.2668,6379.122
6192.9088,6363.525
6193.5508,6204.82
6194.1928,6395.134
6194.8348,6327.034
6195.4768,6365.906
6196.1188,6458.459
6196.7608,6622.821
6197.4028,6729.125
6198.0448,6830.636
6198.6867,6991.212
6199.3287,6820.809
6199.9707,6464.684
6200.6127,6674.707
6201.2547,6464.782
6201.8967,6548.038
6202.5387,6499.734
6203.1807,6793.16
6203.8227,6610.328
6204.4647,6887.865
6205.1067,6730.1
6205.7486,6927.369
6206.3906,6843.712
6207.0326,6947.702
6207.6746,7015.945
6208.3166,6846.854
6208.9586,7001.612
6209.6006,7162.021
6210.2426,6753.992
6210.8846,6905.655
6211.5266,6725.744
6212.1685,6568.419
6212.8105,6626.992
6213.4525,6505.11
6214.0945,6529.676
6214.7365,6559.39
6215.3785,6324.205
6216.0205,6289.912
6216.6625,6105.575
6217.3045,6272.726
6217.9465,6082.294
6218.5884,6113.117
6219.2304,6136.954
6219.8724,6138.023
6220.5144,6337.234
6221.1564,6190.012
6221.7984,6158.308
6222.4404,6239.068
6223.0824,6392.283
6223.7244,6343.508
6224.3664,6307.715
6225.0084,6465.01
6225.6503,6428.864
6226.2923,6704.257
6226.9343,6729.046
6227.5763,6595.195
6228.2183,6438.945
6228.8603,6278.522
6229.5023,6408.427
6230.1443,6397.315
6230.7863,6327.497
6231.4283,6346.556
6232.0702,6168.52
6232.7122,6140.257
6233.3542,6112.888
6233.9962,6032.598
6234.6382,6145.086
6235.2802,6210.095
6235.9222,6238.957
6236.5642,6443.689
6237.2062,6589.717
6237.8482,6626.028
6238.4902,6679.257
6239.1321,6596.655
6239.7741,6651.457
6240.4161,6728.273
6241.0581,6549.301
6241.7001,6212.299
6242.3421,6382.702
6242.9841,6459.69
6243.6261,6132.567
6244.2681,6092.202
6244.9101,6127.587
6245.552,6169.361
6246.194,6148.684
6246.836,6085.032
6247.478,6251.233
6248.12,6403.264
6248.762,6311.113
6249.404,6432.519
6250.046,6442.845
6250.688,6411.62
6251.33,6423.681
6251.9719,6419.084
6252.6139,6268.55
6253.2559,6479.675
6253.8979,6335.57
6254.5399,6145.106
6255.1819,6115.366
6255.8239,5897.639
6256.4659,6007.207
6257.1079,6005.507
6257.7499,6069.062
6258.3919,6108.619
6259.0338,5893.203
6259.6758,5852.812
6260.3178,5930.81
6260.9598,5932.967
6261.6018,6072.953
6262.2438,6181.036
6262.8858,6370.297
6263.5278,6462.546
6264.1698,6540.992
6264.8118,6635.211
6265.4537,6699.333
6266.0957,6606.56
6266.7377,6716.438
6267.3797,6803.319
6268.0217,6690.696
6268.6637,6339.292
6269.3057,6366.669
6269.9477,6680.85
6270.5897,6734.743
6271.2317,6660.67
6271.8737,6794.292
6272.5156,6739.017
6273.1576,6836.138
6273.7996,6661.39
6274.4416,6578.394
6275.0836,6528.195
6275.7256,6497.815
6276.3676,6503.539
6277.0096,6610.16
6277.6516,6496.245
6278.2936,6420.913
6278.9355,6302.394
6279.5775,6307.752
6280.2195,6406.943
6280.8615,6460.343
6281.5035,6415.911
6282.1455,6563.479
6282.7875,6664.208
6283.4295,6670.681
6284.0715,6647.298
6284.7135,6757.144
6285.3554,6912.819
6285.9974,6778.726
6286.6394,6729.148
6287.2814,6759.239
6287.9234,6947.217
6288.5654,6873.569
6289.2074,6963.114
6289.8494,6856.949
6290.4914,6635.314
6291.1334,6743.227
6291.7754,6986.671
6292.4173,7035.365
6293.0593,6906.038
6293.7013,6649.748
6294.3433,6643.948
6294.9853,6798.122
6295.6273,6687.549
6296.2693,6531.925
6296.9113,6637.325
6297.5533,6577.497
6298.1953,6334.412
6298.8372,6573.735
6299.4792,6606.161
6300.1212,6592.867
6300.7632,6516.383
6301.4052,6634.299
6302.0472,6571.678
6302.6892,6491.486
6303.3312,6331.499
6303.9732,6540.587
6304.6152,6243.047
6305.2572,6345.191
6305.8991,6376.409
6306.5411,6476.077
6307.1831,6774.083
6307.8251,6623.179
6308.4671,6941.748
6309.1091,6979.016
6309.7511,6975.326
6310.3931,7072.695
6311.0351,6888.873
6311.6771,6891.994
6312.319,7038.545
6312.961,7206.381
6313.603,7105.203
6314.245,6839.321
6314.887,6836.042
6365.6042,6699.79
6366.2462,6734.747
6366.8882,6830.786
6367.5302,6787.147
6368.1722,6889.973
6368.8142,7084.97
6369.4562,7000.064
6370.0982,7004.139
6370.7402,7058.664
6371.3822,7207.429
6372.0242,7379.781
6372.6661,7479.822
6373.3081,7409.942
6373.9501,7342.258
6374.5921,7252.159
6375.2341,7549.632
6375.8761,7479.134
6376.5181,7418.088
6377.1601,7434.51
6377.8021,7424.195
6378.4441,7350.602
6379.086,7259.519
6379.728,7308.261
6380.37,7162.924
6381.012,7066.505
6381.654,7159.413
6382.296,7131.875
6382.938,7030.701
6383.58,6897.725
6384.222,7002.717
6384.864,7240.539
6385.5059,7287.826
6386.1479,7253.231
6386.7899,7428.111
6387.4319,7528.076
6388.0739,7334.991
6388.7159,7065.521
6389.3579,7121.791
6389.9999,7203.891
6390.6419,7131.775
6391.2839,7102.22
6391.9259,7296.898
6392.5678,7171.481
6393.2098,7258.236
6393.8518,7115.464
6394.4938,6902.491
6395.1358,6961.312
6395.7778,6894.015
6396.4198,6921.679
6397.0618,6955.043
6397.7038,6956.675
6398.3458,7115.088
6398.9877,7127.093
6399.6297,7191.656
6400.2717,7208.323
6400.9137,7078.076
6401.5557,7096.781
6402.1977,6978.729
6402.8397,6944.501
6403.4817,6936.639
6404.1237,6927.347
6404.7657,7080.648
6405.4077,7180.936
6406.0496,7309.379
6406.6916,7478.549
6407.3336,7398.191
6407.9756,7190.186
6408.6176,7242.484
6409.2596,7280.974
6409.9016,7257.034
6410.5436,7244.628
6411.1856,7128.654
6411.8276,7151.354
6412.4695,7014.806
6413.1115,7068.672
6413.7535,7187.542
6414.3955,7295.98
6415.0375,7152.457
6415.6795,7310.904
6416.3215,7327.272
6416.9635,7530.14
6417.6055,7365.143
6418.2475,7374.971
6418.8894,7460.281
6419.5314,7180.472
6420.1734,7102.404
6420.8154,7205.971
6421.4574,7145.481
6422.0994,7087.065
6422.7414,7150.862
6423.3834,7295.849
6424.0254,7247.599
6424.6674,7409.95
6425.3094,7356.446
6425.9513,7352.558
6426.5933,7647.295
6427.2353,7547.513
6427.8773,7506.736
6428.5193,7639.463
6429.1613,7675.577
6429.8033,7619.836
6430.4453,7650.28
6431.0873,7558.124
6431.7293,7436.838
6432.3712,7464.247
6433.0132,7423.694
6433.6552,7201.116
6434.2972,7137.194
6434.9392,7197.398
6435.5812,7460.604
6436.2232,7537.171
6436.8652,7550.426
6437.5072,7538.474
6438.1492,7539.313
6438.7912,7282.607
6439.4331,7088.861
6440.0751,7044.815
6440.7171,7027.2
6441.3591,6966.259
6442.0011,7062.852
6442.6431,6985.644
6443.2851,7321.007
6443.9271,7532.531
6444.5691,7674.603
6445.2111,7558.104
6445.853,7594.56
6446.495,7780.558
6447.137,7935.611
6447.779,7856.677
6448.421,7673.774
6449.063,7461.025
6449.705,7350.867
6450.347,7267.927
6450.989,7210.571
6451.631,7145.931
6452.2729,7133.212
6452.9149,7150.375
6453.5569,7299.72
6454.1989,7403.026
6454.8409,7400.828
6455.4829,7324.76
6456.1249,7468.875
6456.7669,7563.446
6457.4089,7643.461
6458.0509,7557.08
6458.6929,7449.81
6459.3348,7487.385
6459.9768,7467.72
6460.6188,7516.118
6461.2608,7335.926
6461.9028,7378.38
6462.5448,7414.228
6463.1868,7216.866
6463.8288,7147.375
6464.4708,7126.021
6465.1128,6974.637
6465.7547,6930.306
6466.3967,7118.194
6467.0387,7273.171
6467.6807,7472.321
6468.3227,7383.584
6468.9647,7601.433
6469.6067,7656.278
6470.2487,7592.627
6470.8907,7589.843
6471.5327,7661.19
6472.1747,7402.379
6472.8166,7247.115
6473.4586,7350.159
6474.1006,7251.917
6474.7426,7199.672
6475.3846,7358.53
6476.0266,7382.887
6476.6686,7365.632
6477.3106,7343.025
6477.9526,7455.377
6478.5946,7413.239
6479.2365,7560.692
6479.8785,7701.859
6480.5205,7633.087
6481.1625,7591.641
6481.8045,7426.801
6482.4465,7494.489
6483.0885,7305.972
6483.7305,7480.504
6484.3725,7634.635
6485.0145,7330.929
6485.6564,7464.897
6486.2984,7444.321
6486.9404,7645.153
6487.5824,7572.326
6488.2244,7661.985
6488.8664,7616.922
6489.5084,7709.054
6490.1504,7666.328
6490.7924,7660.764
6491.4344,7577.682
6492.0764,7432.915
6492.7183,7468.334
6493.3603,7483.238
6494.0023,7223.835
6494.6443,6947.21
6495.2863,6784.551
6495.9283,6716.394
6496.5703,6546.691
6497.2123,6469.273
6497.8543,6437.58
6498.4963,6427.388
6499.1382,6402.365
6499.7802,6488.179
6500.4222,6599.003
6501.0642,6821.158
6501.7062,7166.396
6502.3482,7180.286
6502.9902,7418.908
6503.6322,7243.521
6504.2742,7292.986
6504.9162,7332.758
6505.5582,7536.262
6506.2001,7713.423
6506.8421,7554.531
6507.4841,7758.549
6508.1261,7757.347
6508.7681,7680.63
6509.4101,7647.107
6510.0521,7762.116
6510.6941,7678.226
6511.3361,7531.567
6511.9781,7580.137
6512.62,7641.448
6513.262,7697.829
6513.904,7560.77
6514.546,7584.298
6515.188,7733.294
6515.83,7575.56
6516.472,7487.581
6517.114,7648.63
6517.756,7565.913
6518.398,7443.39
6519.0399,7617.997
6519.6819,7688.001
6520.3239,7603.72
6520.9659,7683.657
6521.6079,7756.763
6522.2499,7674.33
6522.8919,7702.583
6523.5339,7742.942
6524.1759,7857.117
6524.8179,7930.114
6525.4599,7900.965
6526.1018,7911.302
6526.7438,7910.528
6527.3858,7935.31
6528.0278,7776.18
6528.6698,7890.432
6529.3118,7812.869
6529.9538,7774.471
6530.5958,7749.525
6531.2378,7670.164
6531.8798,7832.399
6532.5217,7968.423
6533.1637,7817.962
6533.8057,7741.915
6534.4477,7664.73
6535.0897,7680.218
6535.7317,7749.568
6536.3737,7810.226
6537.0157,8041.788
6537.6577,8103.496
6538.2997,7948.957
6538.9417,7897.112
6539.5836,8008.778
6540.2256,8117.226
6540.8676,7946.249
6541.5096,7733.713
6542.1516,7908.718
6542.7936,7619.194
6543.4356,7882.184
6544.0776,7913.148
6544.7196,7677.729
6545.3616,7722.509
6546.0035,7662.667
6546.6455,7626.378
6547.2875,7529.197
6547.9295,7538.807
6548.5715,7608.884
6549.2135,7613.639
6549.8555,7532.92
6550.4975,7490.756
6551.1395,7504.095
6551.7815,7519.462
6552.4234,7710.732
6553.0654,7701.648
6553.7074,7688.108
6554.3494,7619.311
6554.9914,7573.742
6555.6334,7547.759
6556.2754,7602.053
6556.9174,7415.741
6557.5594,7308.385
6558.2014,7409.121
6558.8434,7524.781
6559.4853,7765.894
6560.1273,7547.744
6560.7693,7613.651
6561.4113,7760.879
6562.0533,7988.766
6562.6953,8141.338
6563.3373,8178.83
6563.9793,8047.608
6564.6213,8086.054
6565.2633,7957.867
6565.9052,7898.484
6566.5472,7947.286
6567.1892,8069.272
6567.8312,8119.136
6568.4732,7835.876
6569.1152,7580.494
6569.7572,7566.231
6570.3992,7717.896
6571.0412,7690.04
6571.6832,7468.546
6572.3252,7429.137
6572.9671,7324.774
6573.6091,7348.657
6574.2511,7420.147
6574.8931,7169.18
6575.5351,7130.17
6576.1771,7092.11
6576.8191,7307.894
6577.4611,7380.6
6578.1031,7395.854
6578.7451,7383.176
6579.387,7461.217
6580.029,7550.393
6580.671,7618.442
6581.313,7597.562
6581.955,7644.905
6582.597,7679.17
6583.239,7537.998
6583.881,7593.475
6584.523,7491.824
6585.165,7499.592
6585.8069,7632.597
6586.4489,7593.195
6587.0909,7593.604
6587.7329,7543.315
6588.3749,7711.256
6589.0169,7943.248
6589.6589,7771.287
6590.3009,7749.33
6590.9429,7829.326
6591.5849,7658.832
6592.2269,7738.658
6592.8688,7778.232
6593.5108,7460.261
6594.1528,7322.711
6594.7948,7407.314
6595.4368,7341.355
6596.0788,7234.504
6596.7208,7208.012
6597.3628,7177.768
6598.0048,7416.41
6598.6468,7548.376
6599.2887,7528.351
6599.9307,7493.687
6600.5727,7410.252
6601.2147,7358.546
6601.8567,7467.783
6602.4987,7521.649
6603.1407,7636.461
6603.7827,7644.978
6604.4247,7697.395
6605.0667,7768.139
6605.7087,7845.17
6606.3506,7727.092
6606.9926,7595.729
6607.6346,7614.495
6608.2766,7732.819
6608.9186,7554.316
6609.5606,7439.359
6610.2026,7534.619
6610.8446,7646.54
6611.4866,7508.769
6612.1286,7384.934
6612.7705,7516.116
6613.4125,7602.762
6614.0545,7687.403
6614.6965,7774.899
6615.3385,7768.918
6615.9805,7834.812
6616.6225,7685.795
6617.2645,7797.1
6617.9065,7824.1
6618.5485,7832.087
6619.1904,7919.949
6619.8324,7893.741
6620.4744,7814.511
6621.1164,7773.235
6621.7584,7806.86
6622.4004,7817.93
6623.0424,7720.751
6623.6844,7833.541
6624.3264,7644.148
6624.9684,7693.963
6625.6104,7661.128
6626.2523,7696.747
6626.8943,7620.46
6627.5363,7457.75
6628.1783,7543.653
6628.8203,7502.917
6629.4623,7533.854
6630.1043,7580.766
6630.7463,7554.167
6631.3883,7485.847
6632.0303,7537.847
6632.6722,7545.662
6633.3142,7413.612
6633.9562,7362.445
6634.5982,7354.99
6635.2402,7483.768
6635.8822,7467.605
6636.5242,7399.619
6637.1662,7416.158
6637.8082,7444.891
6638.4502,7498.167
6639.0922,7523.897
6639.7341,7455.07
6640.3761,7501.026
6641.0181,7644.042
6641.6601,7604.305
6642.3021,7624.233
6642.9441,7697.724
6643.5861,7613.888
6644.2281,7392.63
6644.8701,7302.154
6645.5121,7395.42
6646.154,7435.234
6646.796,7460.49
6647.438,7330.795
6648.08,7577.065
6648.722,7653.126
6649.364,7574.713
6650.006,7634.909
6650.648,7506.556
6651.29,7483.763
6651.932,7505.155
6652.5739,7511.123
6653.2159,7471.51
6653.8579,7440.73
6654.4999,7496.192
6655.1419,7501.601
6655.7839,7394.506
6656.4259,7445.575
6657.0679,7489.568
6657.7099,7465.125
6658.3519,7577.043
6658.9939,7551.688
6659.6358,7419.285
6660.2778,7405.882
6660.9198,7449.084
6661.5618,7451.072
6662.2038,7388.1
6662.8458,7462.508
6663.4878,7316.696
6664.1298,7208.337
6664.7718,7273.12
6665.4138,7111.099
6666.0557,7166.833
6666.6977,7266.646
6667.3397,7356.062
6667.9817,7294.393
6668.6237,7280.397
6669.2657,7481.408
6669.9077,7571.708
6670.5497,7581.697
6671.1917,7509.233
6671.8337,7499.193
6672.4757,7497.753
6673.1176,7452.788
6673.7596,7648.375
6674.4016,7446.525
6675.0436,7508.361
6675.6856,7555.292
6676.3276,7598.161
6676.9696,7578.379
6677.6116,7598.643
6678.2536,7306.279
6678.8956,7211.222
6679.5375,7161.642
6680.1795,7179.636
6680.8215,7307.136
6681.4635,7085.046
6682.1055,7143.341
6682.7475,7197.13
6683.3895,7385.31
6684.0315,7451.218
6684.6735,7440.303
6685.3155,7312.901
6685.9574,7453.476
6686.5994,7383.46
6687.2414,7416.193
6687.8834,7487.685
6688.5254,7377.582
6689.1674,7315.208
6689.8094,7287.871
6690.4514,7451.706
6691.0934,7542.067
6691.7354,7420.996
6692.3774,7371.851
6693.0193,7438.418
6693.6613,7406.079
6694.3033,7276.401
6694.9453,7350.688
6695.5873,7469.015
6696.2293,7445.423
6696.8713,7511.735
6697.5133,7301.884
6698.1553,7274.57
6698.7973,7357.597
6699.4392,7269.859
6700.0812,7225.234
6700.7232,7317.25
6701.3652,7329.582
6702.0072,7260.831
6702.6492,7149.868
6703.2912,7562.085
6703.9332,7330.204
6704.5752,7248.673
6705.2172,7347.064
6705.8591,7424.921
6706.5011,7270.89
6707.1431,7381.267
6707.7851,7355.055
6708.4271,7318.875
6709.0691,7249.039
6709.7111,7138.081
6710.3531,7348.469
6710.9951,7476.337
6711.6371,7296.449
6712.2791,7230.164
6712.921,7126.872
6713.563,7165.994
6714.205,7080.976
6714.847,7032.121
6715.489,7064.001
6716.131,6888.44
6716.773,6961.369
6717.415,6935.46
6718.057,6796.343
6718.699,6899.615
6719.3409,6880.933
6719.9829,6934.598
6720.6249,6803.211
6721.2669,6698.511
6721.9089,6752.04
6722.5509,6983.256
6723.1929,7164.483
6723.8349,7045.632
6724.4769,7082.837
6725.1189,7117.956
6725.7609,7058.458
6726.4028,7097.642
6727.0448,7209.605
6727.6868,7244.297
6728.3288,7312.017
6728.9708,7330.197
6729.6128,7227.856
6730.2548,7130.937
6730.8968,7283.888
6731.5388,7282.782
6732.1808,7105.671
6732.8227,7154.632
6733.4647,7258.26
6734.1067,7322.359
6734.7487,7252.686
6735.3907,7070.916
6736.0327,7076.388
6736.6747,6997.976
6737.3167,7157.443
6737.9587,7174.255
6738.6007,7189.122
6739.2426,7109.188
6739.8846,7172.974
6740.5266,7125.405
6741.1686,7077.231
6741.8106,7345.667
6742.4526,6988.454
6743.0946,7006.433
6743.7366,7074.373
6744.3786,7113.053
6745.0206,7061.865
6745.6626,7045.735
6746.3045,7017.526
6746.9465,6957.15
6747.5885,6909.209
6748.2305,6893.756
6748.8725,6946.689
6749.5145,6938.028
6750.1565,6881.289
6750.7985,7034.498
6751.4405,6916.375
6752.0825,7052.55
6752.7244,7018.201
6753.3664,7036.801
6754.0084,6939.282
6754.6504,6854.602
6755.2924,7034.097
6755.9344,7108.019
6756.5764,7035.424
6757.2184,7074.905
6757.8604,7189.122
6758.5024,7151.1
6759.1444,7071.888
6759.7863,7211.82
6760.4283,7283.718
6761.0703,7261.705
6761.7123,7388.231
6762.3543,7155.298
6762.9963,7274.181
6763.6383,7227.306
6764.2803,7033.723
6764.9223,7084.378
6765.5643,7193.498
6766.2062,7218.83
6766.8482,7037.823
6767.4902,6932.978
6768.1322,7020.495
6768.7742,7095.25
6769.4162,7132.963
6770.0582,7068.501
6770.7002,6948.347
6771.3422,6738.638
6771.9842,6706.372
6772.6261,6876.627
6773.2681,7045.846
6773.9101,6907.847
6774.5521,7108.496
6775.1941,7033.922
6775.8361,7136.433
6776.4781,7094.68
6777.1201,7080.351
6777.7621,6980.639
6778.4041,7002.775
6779.0461,7052.386
6779.688,7115.657
6780.33,7034.352
6780.972,6954.059
6781.614,6984.062
6782.256,6988.544
6782.898,6749.103
6783.54,6862.227
6784.182,6945.802
6784.824,6878.016
6785.466,6936.488
6786.1079,6873.162
6786.7499,6747.748
6787.3919,6729.783
6788.0339,6475.056
6788.6759,6627.152
6789.3179,6846.0
6789.9599,6969.952
6790.6019,6962.704
6791.2439,6933.758
6791.8859,7009.377
6792.5279,7098.25
6793.1698,6878.129
6793.8118,6769.171
6794.4538,6703.893
6795.0958,6727.498
6795.7378,6983.114
6796.3798,6829.836
6797.0218,7044.154
6797.6638,6912.922
6798.3058,6823.561
6798.9478,6878.604
6799.5897,7011.022
6800.2317,6791.01
6800.8737,6889.004
6801.5157,6918.95
6802.1577,6862.615
6802.7997,6935.421
6803.4417,7080.012
6804.0837,7034.04
6804.7257,7033.45
6805.3677,6959.917
6806.0096,7070.377
6806.6516,7073.375
6807.2936,6850.685
6807.9356,6991.049
6808.5776,6855.172
6809.2196,6889.321
6809.8616,6712.982
6810.5036,6807.655
6811.1456,6850.478
6811.7876,6866.357
6812.4296,6906.235
6813.0715,6869.248
6813.7135,6721.259
6814.3555,6734.935
6814.9975,6760.806
6815.6395,6792.409
6816.2815,6925.451
6816.9235,6824.937
6817.5655,6803.23
6818.2075,6602.272
6818.8495,6731.071
6819.4914,6859.966
6820.1334,6752.841
6820.7754,6957.765
6821.4174,6943.744
6822.0594,6994.883
6822.7014,6997.543
6823.3434,6752.144
6823.9854,6761.626
6824.6274,6884.281
6825.2694,6933.541
6825.9114,6959.602
6826.5533,6722.395
6827.1953,6998.903
6827.8373,7142.083
6828.4793,6942.893
6829.1213,6767.358
6829.7633,6830.735
6830.4053,6684.956
6831.0473,6742.318
6831.6893,6908.087
6832.3313,6971.577
6832.9732,6680.661
6833.6152,6588.102
6834.2572,6649.42
6834.8992,6840.399
6835.5412,6817.037
6836.1832,6859.688
6836.8252,6653.191
6837.4672,6995.985
6838.1092,6763.415
6838.7512,6858.433
6839.3931,6881.482
6840.0351,6726.788
6840.6771,6828.371
6841.3191,6688.368
6841.9611,6756.097
6842.6031,6723.446
6843.2451,6641.484
6843.8871,6512.553
6844.5291,6519.171
6845.1711,6488.984
6845.8131,6584.705
6846.455,6447.944
6847.097,6374.813
6847.739,6439.351
6848.381,6414.625
6849.023,6554.837
6849.665,6795.083
6850.307,6602.233
6850.949,6605.478
6851.591,6635.005
6852.233,6664.154
6852.8749,6755.783
6853.5169,6683.039
6854.1589,6529.917
6854.8009,6546.166
6855.4429,6684.81
6856.0849,6559.47
6856.7269,6492.263
6857.3689,6494.954
6858.0109,6313.398
6858.6529,6457.591
6859.2949,6428.617
6859.9368,6293.293
6860.5788,6471.677
6861.2208,6391.69
6861.8628,6369.709
6862.5048,6570.655
6863.1468,6500.651
6863.7888,6411.577
6864.4308,6258.391
6865.0728,6041.074
6865.7148,5863.542
6866.3567,5536.054
6866.9987,5322.904
6867.6407,5171.561
6868.2827,4905.024
6868.9247,4528.722
6869.5667,4192.582
6870.2087,4206.475
6870.8507,4366.342
6871.4927,4517.61
6872.1347,4662.699
6872.7766,4696.806
6873.4186,4761.414
6874.0606,5092.133
6874.7026,4981.809
6875.3446,5191.329
6875.9866,5072.956
6876.6286,5368.306
6877.2706,5339.649
6877.9126,5575.474
6878.5546,5625.971
6879.1966,5858.407
6879.8385,6001.263
6880.4805,6080.879
6881.1225,6081.0
6881.7645,6102.183
6882.4065,6190.633
6883.0485,6214.495
6883.6905,6111.605
6884.3325,5932.527
6884.9745,5825.227
6885.6165,5476.201
6886.2584,5320.477
6886.9004,5595.605
6887.5424,5473.322
6888.1844,5494.951
6888.8264,5778.701
6889.4684,5756.988
6890.1104,5638.702
6890.7524,5583.767
6891.3944,5640.059
6892.0364,5733.921
6892.6784,5780.506
6893.3203,5800.172
6893.9623,5574.91
6894.6043,5490.638
6895.2463,5871.959
6895.8883,5884.331
6896.5303,5872.093
6897.1723,5875.314
6897.8143,5700.563
6898.4563,5588.962
6899.0983,5769.278
6899.7402,5954.836
6900.3822,6036.644
6901.0242,5942.243
6901.6662,5779.219
6902.3082,5836.267
6902.9502,5858.032
6903.5922,5973.31
6904.2342,5645.099
6904.8762,5127.915
6905.5182,5597.583
6906.1601,5910.625
6906.8021,5878.665
6907.4441,6054.698
6908.0861,6224.982
6908.7281,6283.34
6909.3701,6298.143
6910.0121,6283.328
6910.6541,6084.474
6911.2961,6093.701
6911.9381,6268.649
6912.5801,6321.911
6913.222,6457.03
6913.864,6378.514
6914.506,6208.089
6915.148,6079.604
6915.79,5946.317
6916.432,5954.769
6917.074,6112.387
6917.716,6188.258
6918.358,6110.843
6919.0,6060.911
6919.6419,6082.09
6920.2839,5987.021
6920.9259,6103.309
6921.5679,5957.063
6922.2099,6245.336
6922.8519,6358.804
6923.4939,6342.341
6924.1359,6255.702
6924.7779,6211.479
6925.4199,6271.573
6926.0619,6243.898
6926.7038,6226.978
6927.3458,6132.508
6927.9878,6147.59
6928.6298,6195.027
6929.2718,6212.37
6929.9138,6200.853
6930.5558,6073.012
6931.1978,6149.516
6931.8398,6163.975
6932.4818,6194.666
6933.1237,6433.508
6933.7657,6428.266
6934.4077,6417.2
6935.0497,6371.959
6935.6917,6292.702
6936.3337,6340.072
6936.9757,6461.447
6937.6177,6469.118
6938.2597,6302.276
6938.9017,6151.561
6939.5436,6334.762
6940.1856,6108.349
6940.8276,6114.412
6941.4696,6192.881
6942.1116,6230.478
6942.7536,6335.895
6943.3956,6462.299
6944.0376,6528.591
6944.6796,6451.468
6945.3216,6467.194
6945.9636,6431.337
